wavelength: 632.8 R: 400 r0: 10 LinSpaced num:100 100
    113.628    0.287973     14.1347     5.24445     2.30601     73.5306     25.2146     11.5309     8.39319    0.186657     45.1652     257.051     7.06337     10.7788    0.354569      25.622     13322.7     2.46356     11.8609     2.23743     12.0982     1650.85 0.000798417     11.1905     4.75349     4.27746     363.279     4.77617     8.98321     8.00891    0.552856      145.03     27.6127     5.79961     9.81687      0.2108     65.1576     104.743     2.18905     10.5944     2.09032      27.583     417.699   0.0826792     10.1479     4.95602     9.09452     4427.66     1.44919     7.93988     7.97123      1.4489     4429.98     9.03271     4.92677       10.14   0.0810829      419.25     27.4764     2.08431     10.9442     2.10523     105.265     65.0506    0.174084     10.0391     5.65995     28.0427     144.306    0.553714     7.96511     8.89623     4.65394     362.771     4.28906     5.09852     11.1065  0.00332159     1652.74      12.275     2.21721     11.8076     2.36246     13395.4     25.6073    0.316083     10.6881     6.95455     256.286     45.5991    0.200726     8.48428     11.1898     25.4182     72.9045      2.4146     5.17767     13.6881    0.312834     114.654
   0.287967  0.00120941   0.0363376  0.00825359  0.00480778    0.191739   0.0793449   0.0379868   0.0158174  0.00114454    0.118369    0.707872   0.0180134   0.0207766  0.00177194   0.0679994     35.6951  0.00900843   0.0356331  0.00513254   0.0501326     4.35152  0.00030656   0.0404552   0.0206121   0.0144331      1.0573   0.0134664   0.0293788   0.0217504  0.00295904    0.386047    0.069854   0.0113936   0.0247026  0.00161499    0.170298     0.28163  0.00280351   0.0265465  0.00667816    0.080955     1.10231  0.00034887   0.0283879   0.0128673     0.02247     11.8098  0.00512082   0.0216596   0.0184838  0.00394531     11.6848   0.0265744   0.0128235   0.0220076  0.00119211     1.09097   0.0780874  0.00593381   0.0339732  0.00711438    0.318814    0.161411  0.00229769   0.0296104  0.00948028   0.0802332    0.367839  0.00215092    0.015537   0.0287239   0.0167436     1.01572   0.0147915   0.0143972   0.0407278 4.05262e-05      4.4285   0.0385171  0.00139915   0.0367846   0.0101106     35.2148   0.0528079  0.00113271   0.0271397   0.0131647    0.694669    0.101797 0.000563766   0.0220419   0.0311625   0.0833462    0.177902  0.00561522   0.0029217   0.0306638  0.00110414    0.324976
    14.1348   0.0363401     1.78213    0.620651    0.328901     8.76204     3.01998     1.39335     1.06328    0.017876     5.28097     31.7132    0.864227     1.24145   0.0297569     3.09363     1629.06    0.328559     1.43482    0.249368     1.59036     200.815  0.00133109     1.43743    0.673275    0.525841     44.2659    0.553146     1.12312    0.943819   0.0871659      17.505     3.42307    0.681836     1.26338   0.0195634     8.02292     12.6906    0.245999     1.29393    0.231686     3.30053     51.0746  0.00987412     1.21225    0.604853     1.09764      540.71    0.179916    0.963662     0.98424    0.182159     540.884     1.14316    0.651263     1.21213  0.00966605     50.9149     3.44294    0.237129     1.32452    0.258777     12.9087     7.98825   0.0324483     1.25177    0.686894     3.30799     17.7129   0.0609003    0.978346     1.07646    0.587792     44.2692     0.52027    0.581706     1.41603    0.001939     203.371     1.47286    0.272051     1.45951    0.274491     1633.92     3.13417   0.0383748     1.24604    0.838645     31.3248     5.36981   0.0205629     1.03891      1.3496     3.01328     8.86083    0.311751    0.611704      1.7302   0.0349095     14.2141
    5.24443  0.00825358    0.620658    0.435564     0.10526     3.47833     1.23575    0.525981    0.416051  0.00472091     2.04473      11.976    0.368713    0.509607   0.0175259     1.27809     623.792    0.156427    0.504032   0.0946409     0.59084      77.482  0.00021792    0.491178    0.212044    0.174848     17.1273    0.212479     0.43911    0.273123   0.0229732      6.7863     1.29756    0.270509    0.486836   0.0119375     3.07849     4.98541    0.097121    0.507326   0.0905161     1.26628     19.6539  0.00365773    0.450945    0.230144    0.432773     207.077   0.0631732    0.371711    0.385057    0.071731     207.402    0.410465    0.234233    0.477152  0.00422841     19.5874     1.30422   0.0892132    0.513803    0.110709     4.95576     3.04994   0.0160323    0.497076    0.291597      1.2864     6.82127   0.0248528    0.331392    0.423639    0.207195     17.0615    0.185289    0.237324    0.556036 0.000916784     76.8782    0.559331    0.116727     0.51506    0.111789     628.575      1.1319   0.0197485    0.502848    0.311696     11.9596     2.10684  0.00585581     0.42929    0.569165     1.19205      3.5524    0.113964    0.515045    0.641709   0.0185477     5.17763
    2.30601  0.00480753    0.328902    0.105259   0.0516911     1.47741    0.539221    0.277228    0.162657  0.00357284    0.947654     5.32218    0.119025    0.228166   0.0114552    0.496214      276.28   0.0316047    0.253857   0.0417715    0.263273     34.3636 0.000975032    0.233994   0.0865776   0.0846643     7.60296    0.104357    0.184278    0.149743   0.0154483     3.01319    0.543988    0.116385    0.191205  0.00620458     1.38465     2.15756   0.0408024    0.209556   0.0445884    0.563188     8.65569  0.00197663    0.200873   0.0997049    0.178723     91.8139   0.0320842    0.161979    0.166715   0.0270838     91.7794    0.180213    0.117954    0.222063  0.00238617     8.69462    0.567222   0.0412983    0.222646   0.0363115     2.17436     1.36311   0.0111272    0.215217    0.116315    0.593591     3.02034    0.016287    0.151794    0.191311   0.0956583     7.62669   0.0853603    0.101244    0.216915 0.000399083     34.1828    0.251189   0.0459674    0.238004   0.0324821      278.42    0.509265   0.0094246    0.249631    0.140698     5.33337    0.955706  0.00354268    0.189895    0.250229    0.513105     1.58142   0.0560307    0.113964    0.315593   0.0133982      2.4146
    73.5307    0.191735     8.76203     3.47834     1.47739     46.4139     16.7395      7.4288      5.3646    0.151258     29.1498     164.796     4.48055     7.00565    0.205632     16.4371     8553.82     1.55829     7.62517     1.34379     7.98792     1062.02  0.00510942      7.1322     3.26386     2.77397     233.138      3.0219      5.8635     5.14626    0.336552     93.1411     18.0669     3.61688     6.36083    0.132298     41.6324     67.6549     1.36952     6.89593      1.3391      17.706     267.865   0.0507579     6.57142      3.2092     5.88376     2842.48    0.944491     5.08739     5.11292    0.949104     2844.73     5.84599     3.31305     6.51483   0.0546554     268.894     17.5015     1.34775     6.90946     1.38825     67.5724     41.7565    0.126431     6.39434     3.57249     17.9553     93.3783    0.354048     5.03837     5.79403     2.96201     232.324     2.75557     3.22964      7.2382 0.000844656     1060.65     7.77132     1.39245     7.70268     1.58037     8596.67     16.3311    0.272062     6.89323     4.43251     165.599     28.8123    0.117778     5.54168     7.23378     16.3608     45.2781     1.58144     3.55238     8.88788    0.206062     72.9046
    25.2144   0.0793527     3.01995     1.23573    0.539225     16.7395     5.65938      2.5013     1.88074   0.0462733      9.9307     58.0015     1.59046     2.40362   0.0872766     5.93176     2988.16     0.54843     2.66944    0.487828     2.76192      370.61 0.000386013     2.55687     1.14855    0.940519     80.5716    0.977889     1.93666     1.75243    0.118164     32.5268     6.22152     1.24995     2.15039   0.0487806     14.7437     23.5224    0.511267     2.43276    0.480169     6.22419     93.6458   0.0156888     2.21563     1.12128     2.08433     992.657    0.321666     1.78116     1.78534     0.33361     992.866     2.05288     1.08277     2.23528   0.0180888     93.7314     6.15427    0.474296     2.37992    0.485456     23.6686      14.619   0.0442234     2.22119     1.21245     6.38224     32.4458    0.107488      1.7911     2.02882      1.0226     80.4271    0.900131     1.06506      2.5241  0.00297028     370.969     2.85743    0.480561     2.70907    0.522668     3002.06     5.61882   0.0757586     2.36999     1.57615     58.3726     10.0681   0.0461996     1.84527     2.56291     6.05378     16.3609     0.51312     1.19205     3.13008   0.0837528     25.4182
    11.5309   0.0379891     1.39334    0.525981    0.277226     7.42875     2.50133     1.06937    0.887096   0.0161028     4.27423     25.7253    0.709925      1.0844   0.0379844     2.60908     1344.44     0.24558     1.21437      0.2022     1.26489      166.09 0.000509566     1.12747    0.512895     0.44952      35.938    0.474289    0.864461    0.828741   0.0698513     14.6106     2.88177    0.561442        1.02   0.0159908     6.52531     10.7289    0.208503     1.12528    0.212061     2.82829      41.985   0.0111812    0.995184    0.518005    0.907545     446.874     0.15037    0.790166    0.798518    0.149078     447.572    0.934269    0.508606     1.00205  0.00880172     42.1296     2.81639    0.228553     1.09214    0.210531     10.6241     6.55933   0.0280638     1.02628    0.557519     2.80032     14.6395   0.0490955    0.819664    0.945861    0.490618     36.0715    0.398063     0.47531      1.1697 0.000711847     166.834     1.23403    0.218659     1.25595    0.238864     1350.88     2.47669   0.0209054      1.0354    0.750412      25.681     4.44237   0.0194088    0.840433     1.16308     2.60618     7.39711    0.307091    0.542143     1.39233    0.033571     11.3649
    8.39323   0.0158159     1.06329    0.416051    0.162654     5.36461     1.88073    0.887095     0.64977   0.0179203     3.40164     19.3415    0.519009    0.812235   0.0241545     1.90395     989.971    0.173562    0.864539    0.185415    0.914598     123.148 0.000280074    0.825874     0.36283     0.30785     26.8849    0.348197    0.684757    0.570497   0.0396898     10.6877     2.02605    0.412854    0.745196   0.0178629     4.81864     7.75981    0.173629    0.806028    0.151247     2.03475     31.0317   0.0067949    0.751298    0.365021    0.656989     329.213    0.115334    0.581159      0.5923    0.105015     328.669    0.707101    0.385906    0.773362  0.00537732     31.0402     2.01417    0.148824     0.81712    0.152748     7.87881     4.78197   0.0164499    0.780323    0.395529      2.0544      10.677    0.043186    0.539961    0.650537    0.364886     26.9647    0.311892    0.376594    0.836432 0.000675646     123.535      0.9056    0.146237    0.913619    0.170275     995.652     1.85217   0.0238812    0.839135    0.508739     19.2793      3.5065   0.0167143    0.662818    0.892629     1.91075     5.32668    0.175583    0.413137      1.0606   0.0201049     8.60093
   0.186663  0.00114473   0.0178757  0.00472075  0.00357274    0.151261   0.0462716   0.0161027   0.0179201   0.0028237   0.0868132     0.43926   0.0144926   0.0201253 0.000195546   0.0402969      23.347  0.00339281   0.0242882  0.00657987   0.0273256     2.93552 0.000361866   0.0219269  0.00744916  0.00794769    0.654214  0.00525925   0.0185598   0.0215379  0.00129179    0.254253   0.0473386   0.0103082   0.0203846  0.00107228    0.120876    0.184068  0.00334862   0.0174387  0.00444374   0.0503848    0.745509 0.000285942     0.01851  0.00591859   0.0133429     7.74352  0.00113546   0.0125789   0.0157316  0.00240279     7.65572   0.0165339   0.0081735   0.0176799 0.000423092    0.756654   0.0525699  0.00354514   0.0246607  0.00391349    0.180011    0.126388  0.00322656   0.0185073   0.0109714   0.0476561    0.271835  0.00141754   0.0108123   0.0198103  0.00622637    0.651431  0.00788783   0.0110791   0.0182742  0.00039928     2.87493   0.0246969  0.00314849   0.0170934   0.0059951     23.5242   0.0390951 0.000608362   0.0155815  0.00957195    0.452935   0.0617608 0.000527574   0.0186545   0.0214531   0.0321558    0.146825  0.00425582   0.0076485   0.0207467   0.0014496    0.178076
    45.1652    0.118374     5.28098     2.04471    0.947656     29.1497     9.93068     4.27422     3.40165   0.0868122     19.0142     102.352     2.72012     4.57078    0.110478      10.163     5297.71    0.988723       4.714    0.838307     4.88496     657.811 6.26622e-05     4.47008     1.91873     1.72703     143.576     1.87201     3.42003     3.21061     0.22019     58.0314     11.2102     2.20348     3.86528   0.0546581     25.8897     41.7551    0.838554     4.32669    0.848532     10.9677     165.947    0.032561     3.97003     1.98122     3.64316     1760.38     0.56925     3.18562     3.15905    0.573347     1762.32     3.62515      1.9936     3.95063   0.0313188     166.675     10.9386    0.876425     4.32822    0.826508       41.52     25.8719   0.0740778     4.01343     2.26991     11.2321     57.9117    0.216641     3.23815     3.57714     1.78131     143.414     1.71802      2.0254     4.36692 0.000823045     655.317     4.68669    0.953072     4.53466    0.936679     5331.02     10.2152    0.132674     4.38773     2.92877     102.328     18.1089     0.06609     3.45256     4.62312     10.1026     29.1655    0.958453     2.12226     5.39163    0.118898     44.7653
     257.05     0.70786     31.7132     11.9761     5.32219     164.795     58.0015     25.7253     19.3415    0.439268     102.352     580.417     16.0529     24.4233    0.779188     58.0091     30168.1     5.40794     26.6916     4.93476     27.6037     3737.73 0.000132917     25.4232     11.2932     9.47252     815.499     10.7936     20.2876     17.7616     1.17653     327.235     62.4232     12.6662      22.417    0.462028     146.875     237.377     4.86302      24.402     4.75919      62.527     945.377    0.177139     22.8626     11.3734     20.5561     10022.6     3.31127       17.94     18.1597     3.33835     10029.2     20.4033     11.4739     22.6015    0.179412     947.982     62.4782     4.77731     24.5297     4.84172     237.734     146.969    0.434062     22.5026      12.676     63.0925     327.848     1.26112     18.0622     20.2024     10.5435     815.956     9.76102     11.5614     25.1881 0.000227379     3744.29     27.5725     5.05848     26.8355      5.3966     30319.9     58.1274    0.767454     24.6038     15.7887     583.202     102.439    0.424385     19.1254     25.8195      57.674     164.656     5.27973     12.0209     31.2042    0.716388     257.215
    7.06348   0.0180123    0.864231    0.368714    0.119024     4.48058     1.59047    0.709927     0.51901   0.0144926     2.72012     16.0528    0.544901    0.678696   0.0211587     1.58483     825.697    0.144297    0.770719    0.138854    0.791094     102.042 0.000103027    0.697405    0.317847    0.256653     22.2892    0.267928    0.548819     0.46245   0.0391374     8.94267     1.74933    0.344306    0.623865   0.0104954     4.02241      6.4676    0.134512    0.658365    0.113302     1.71352     25.9327  0.00543118    0.616765    0.309208    0.576952     274.311   0.0903012    0.495691    0.491533   0.0886824     274.498     0.57271    0.301574    0.626767  0.00457569      26.004     1.69198    0.116213    0.655782    0.126278     6.46127     4.06509   0.0132893     0.60912    0.343802     1.70539       8.961   0.0278035    0.498531    0.574487    0.279421     22.4518     0.27075    0.317802     0.71464 0.000127521       102.5    0.754918    0.134074    0.749226    0.152841     830.154     1.57619   0.0211552    0.659684    0.424508     15.9907     2.80769  0.00749357    0.559351    0.702963     1.53637     4.50784     0.14228      0.3461     0.81686   0.0201899     6.99429
    10.7788   0.0207769     1.24146    0.509609    0.228163     7.00565     2.40359     1.08441    0.812233   0.0201261     4.57079     24.4233     0.67869     1.19225   0.0401078     2.41578     1268.75    0.246082     1.12936    0.210034     1.17236       157.7 0.000539709     1.04404    0.488568    0.443079     34.2773    0.447001    0.837612    0.759336   0.0503449     13.8364     2.64564    0.510366    0.934727    0.019878     6.20759     9.87899    0.208162     1.00731    0.193092     2.60381     39.7549   0.0069981    0.993661    0.485869    0.875054     421.547    0.149664    0.765611    0.762693    0.139161     421.647    0.842992    0.472838    0.969283  0.00460359     39.7799     2.62803    0.204653     1.03442    0.198384     9.96207     6.14642   0.0126831    0.924723    0.529619     2.61614     13.7748   0.0514029    0.757693    0.842418    0.439612     34.6669    0.438581    0.463037     1.01412 2.94622e-05     156.983     1.13965    0.221053     1.13079    0.249621      1276.1     2.42456   0.0265945     1.19215    0.706655     24.4553     4.53985   0.0189565    0.805777     1.09403     2.53799     7.00348    0.222662    0.477865     1.35594   0.0314963     10.7824
   0.354574  0.00177203   0.0297574   0.0175264   0.0114559    0.205633   0.0872771    0.037986   0.0241541  0.00019553     0.11048    0.779183   0.0211596    0.040108  0.00534646   0.0687961     39.5893  0.00929528   0.0339349  0.00611033   0.0392338     4.94937 0.000727857   0.0357091  0.00956851   0.0183163     1.09568   0.0166374   0.0279554   0.0244688  0.00124283    0.426165    0.086798   0.0193364   0.0311849  0.00034928    0.200789    0.315113  0.00550596   0.0281616  0.00672868   0.0804118     1.22981 0.000111871   0.0311351   0.0142992   0.0291366     13.2228    0.003629   0.0219082     0.02629  0.00511322     13.2487   0.0270531   0.0127333   0.0300463 0.000198589     1.27501   0.0860518  0.00134348   0.0298834  0.00985085    0.307697    0.183062 0.000113396   0.0318061     0.01473   0.0834244    0.448642  0.00296597   0.0211585   0.0223662   0.0135429     1.16851   0.0119311     0.01762   0.0306865   0.0024884     4.98584   0.0385391   0.0072772   0.0367681  0.00526463     40.0667   0.0690636  0.00208879   0.0285511   0.0201713    0.732378    0.134863  0.00107691   0.0224608    0.030888   0.0925875    0.228892  0.00981773   0.0231849   0.0368194 3.43769e-05    0.321787
     25.622   0.0679998     3.09362     1.27809    0.496218     16.4371     5.93175     2.60909     1.90396   0.0402994      10.163     58.0092     1.58482     2.41577   0.0687964     5.45325     3008.23    0.543537     2.68624    0.509052     2.83258     371.776 0.000733691     2.52598     1.14579    0.984188     81.2525     1.03086     2.03773     1.66826    0.107264     32.4007     6.27575     1.22121     2.26143   0.0521358     14.6639     23.6374    0.460599     2.40071    0.461496     6.22824     94.0758   0.0172077     2.27262     1.13685      2.0643     998.503    0.338196     1.78087     1.80082    0.324218     998.754     2.03697      1.1312     2.32949   0.0151383     94.2039      6.2429    0.481855     2.44244    0.481011     23.8793     14.5631   0.0402739     2.19133     1.24511     6.31216     32.8129    0.119588     1.72992     2.03063     1.06245     81.4537     1.02374     1.13935     2.61271  0.00035457     374.585     2.78958     0.46925     2.70659     0.53264     3020.73     5.87302   0.0751031     2.49818     1.53802     57.7974     10.1919   0.0407039     1.82472     2.56084     5.92979     16.6024    0.519577     1.28521     3.17805   0.0696942     25.7302
    13322.6     35.6973     1629.06      623.79     276.281     8553.76     2988.16     1344.43     989.961      23.347     5297.73     30168.2     825.688     1268.75     39.5899     3008.24 1.56705e+06     290.395     1394.49      259.36     1445.82      194212  0.00965101      1317.1     586.877     499.898     42456.4     546.114     1053.46     922.766      63.443     17047.1     3272.72     658.906     1167.23     22.9925        7658     12353.8     253.281     1265.84      243.96     3232.06     49103.7     9.20028     1181.91     590.382     1074.78      520563     171.132     939.342     935.547     172.901      520942     1070.69     591.759     1182.45     8.73884     49158.1     3223.55     246.988     1265.12     249.402     12376.9     7650.73     23.7423     1167.31      657.62     3282.44     17029.5     62.6754     924.312     1051.55     547.928     42455.1     500.243     592.131     1317.18  0.00186716      194456     1437.49     261.475      1399.7     285.803 1.57511e+06     3003.47     39.9471     1261.48     826.405     30257.6     5295.18      23.615     989.058     1334.87     2986.44      8557.6     275.627      623.05     1623.71     38.8835     13325.7
    2.46356  0.00900786    0.328556    0.156425   0.0316046     1.55829    0.548416     0.24558    0.173563  0.00339281    0.988721       5.408    0.144298    0.246083  0.00929512    0.543538     290.389   0.0295725    0.249225   0.0464531    0.276753     35.8891 0.000537778    0.233363    0.120869   0.0956578     7.80711    0.114164    0.193155    0.173496   0.0112899     3.01565    0.576364    0.122053    0.226162  0.00259343      1.4169     2.38521   0.0386326    0.226382   0.0480956    0.579735     8.96991  0.00146159    0.229319    0.105152    0.201136     96.5023   0.0336611    0.171762    0.172943   0.0336807     96.7095    0.192901    0.117666    0.226282  0.00112293     9.01875    0.572019   0.0462602    0.229857   0.0511563     2.31828     1.38306   0.0111109    0.230944    0.124654    0.597494      3.1133  0.00841846    0.176709    0.212164    0.114541     7.70212   0.0794316    0.108464    0.264768 0.000595955      35.837    0.268967   0.0510546    0.249782   0.0534055     291.413    0.548857  0.00993715    0.218335    0.167402     5.43375    0.951008  0.00335595    0.181691    0.230222    0.499539     1.61293   0.0386075    0.128259      0.2803   0.0133172     2.48055
    11.8609   0.0356297     1.43482    0.504029    0.253859     7.62522     2.66942     1.21437    0.864542   0.0242884       4.714     26.6917    0.770717     1.12937   0.0339348     2.68624      1394.5    0.249225     1.12664     0.22904     1.26991     171.413 0.000280088     1.15991    0.509319    0.484304     37.5426    0.514477    0.921433    0.800402   0.0665087       15.02     2.91645    0.537617     1.03443   0.0224627        6.89     10.8755    0.228978      1.0837    0.233323     2.90118     43.6335  0.00959737     1.05588    0.525201    0.943177     462.658    0.149532    0.820196    0.824414    0.162975     463.592    0.974688    0.530335     1.06169  0.00845438      43.781     2.77804    0.228142     1.04016    0.224534     11.0781     6.82243   0.0305449     1.03266    0.582225     2.88228     15.1113   0.0544518    0.804152    0.908888    0.485304     37.5666    0.423026    0.524776     1.21184 0.000274176     172.439     1.26378    0.239814     1.15771    0.246004     1402.52     2.64614   0.0297552     1.11844    0.744161     26.5702     4.81203   0.0189867    0.902716     1.24633     2.73674     7.47416      0.2419      0.5558     1.36123   0.0240468     11.8617
    2.23745  0.00513229    0.249371     0.09464   0.0417719     1.34378    0.487808    0.202204    0.185418  0.00657975    0.838311     4.93475    0.138855    0.210036   0.0061105    0.509053     259.358   0.0464532    0.229039   0.0546745    0.240701      32.201 0.000364424     0.21359   0.0938152   0.0824787     6.89907   0.0873921    0.156022    0.166547   0.0122946     2.76504    0.531669    0.108593      0.2118  0.00354741     1.25476     2.02871   0.0447033    0.212212   0.0426939    0.543145     8.10361  0.00214756    0.202238   0.0943395    0.174398     85.8932   0.0336302    0.152746    0.156793    0.031247     85.7413    0.177249   0.0976699     0.19298  0.00138336     8.15921    0.529649   0.0374004    0.216642   0.0384188     2.05525     1.31354   0.0040915    0.197377    0.104361    0.552243      2.7878   0.0116368    0.137151     0.16966   0.0815995      6.9729   0.0830148    0.092191    0.220429 0.000692596     31.8957    0.242163   0.0409108    0.227936   0.0369865     260.999    0.469105  0.00672832    0.226291    0.127237      5.0527    0.820629  0.00294933    0.174973    0.210529    0.439771     1.36311    0.042827    0.108067    0.247304   0.0104155     2.17462
    12.0982   0.0501328     1.59036    0.590835    0.263273     7.98797     2.76192     1.26489    0.914603   0.0273242     4.88496     27.6039    0.791093     1.17236   0.0392332     2.83256     1445.83    0.276754      1.2699    0.240699     1.34358     179.211 0.000709352     1.21118    0.450921    0.453339     39.3682     0.51311    0.988231    0.860794     0.06172     15.7211     3.02696    0.608865     1.08351   0.0293727     7.04489     11.3344    0.245327     1.13607    0.220244     2.99435     45.1754     0.00591     1.08586    0.540581    0.996745     479.172    0.155019    0.865594     0.86445    0.159211     479.397     1.00704    0.547643     1.10081  0.00741452     45.3797     2.95137    0.221474     1.16862     0.21498     11.4661     7.06943   0.0246735     1.07619    0.600729     3.02249     15.6666   0.0647862     0.85455    0.967672    0.494096     39.2117    0.469378    0.582782     1.21377 0.000426915     178.907     1.27339    0.211936     1.23045    0.244215     1451.14     2.77275   0.0408154     1.13675    0.772918     27.5587     4.95713   0.0276162    0.964219     1.23082     2.72206      8.0316    0.270718    0.572453     1.50567   0.0252533     12.3702
    1650.86     4.35165     200.816     77.4817     34.3639     1062.02     370.605      166.09     123.149     2.93553     657.809     3737.77     102.042       157.7     4.94942     371.774      194210     35.8894     171.413     32.2009     179.212     24094.9  0.00169466     163.696     72.4949     62.3504     5262.24     67.4858     130.801     114.755     7.80302      2112.1     403.249     81.3183     144.586     2.87271     947.353     1530.71     31.2228     156.634     30.3594      400.26      6087.8     1.12155     146.819     73.0418     133.167     64510.5     21.2766     116.142     115.903     21.4057     64546.7     132.436     73.1207     147.287     1.11306     6091.04     399.851     30.3033     157.318     31.0814     1535.18     946.758     2.99064     144.603     81.3902     407.263     2109.51      7.8177     113.929     130.958     67.9634     5259.33     62.7199     73.7459     164.213 0.000158102     24098.1     178.759     32.0701     173.195     35.4897      195182     370.374     5.06523     156.358     102.195     3750.26     653.938     2.78552     122.758     165.878     370.783     1059.82     34.3988     76.9672     201.916      4.9999     1652.17
0.000798004 0.000306801  0.00133163 0.000217972 0.000974721  0.00510862 0.000385623 0.000509512 0.000279953 0.000361776 6.26892e-05 0.000132867 0.000103085 0.000539645 0.000727833  0.00073375  0.00966964 0.000537963  0.00028012 0.000364265 0.000709611  0.00169339  0.00596986 0.000265935  0.00895129 0.000435715 0.000642718 1.36052e-05 6.80007e-05  5.4872e-05 0.000137436 2.21259e-05  0.00171991 0.000122521 0.000891384 6.60966e-05 0.000531722 8.55989e-05 0.000126769  4.8267e-05  0.00045206 0.000357994  0.00160303 0.000345398 0.000218935 6.02134e-05 0.000457202  0.00178083 5.20126e-06  2.7736e-05 3.31681e-05 1.82278e-05  0.00300447 4.00371e-05 0.000172459   8.821e-06 0.000118392 0.000801191 0.000144676 0.000441709 0.000313826 3.25379e-05 6.73353e-05  7.8352e-05 0.000293464 0.000951562 0.000286149  0.00015778 0.000338868 8.46503e-05 0.000879397  0.00017176 0.000425197 0.000711411 0.000155788  0.00122127 0.000115628  0.00184842  0.00380206  0.00660004 0.000519746 9.19548e-06 0.000418803   0.0115907 0.000356599 0.000251145 1.08163e-05 3.85296e-06 0.000256647 0.000431605 0.000170136 0.000325933 0.000713261 0.000333851   0.0023888  0.00216342  4.4257e-06  0.00389892  0.00233245  0.00155253
    11.1905   0.0404595     1.43744    0.491176    0.233994     7.13226     2.55683     1.12748    0.825887   0.0219275     4.47008     25.4233    0.697401     1.04404   0.0357083     2.52599     1317.09    0.233364     1.15992    0.213591     1.21118     163.696 0.000265874     1.19509    0.508675    0.394228     35.6286    0.457344    0.896556    0.765662   0.0559746     14.3323     2.74467    0.553815     0.95538   0.0115377     6.45187     10.3822    0.219149     1.06977    0.209748     2.72011     41.1446  0.00619662    0.985779    0.487053    0.931877     437.287    0.139818    0.790532    0.784467    0.143519     436.859    0.893869    0.507813     1.01535  0.00831086     41.3112     2.70425    0.212787     1.08341    0.208871     10.4364     6.40638   0.0221571     1.00277    0.548917     2.79815     14.3369   0.0458201    0.773178    0.901926    0.452502     35.7193    0.403074    0.500649     1.13156   2.757e-05     163.561     1.26359    0.209034     1.24119     0.24819     1323.48     2.60547   0.0433446     1.02612    0.687547     25.6626     4.40723   0.0180719    0.845738     1.09615     2.50383     7.04851    0.243802    0.489472     1.34835    0.034164     11.3191
    4.75345   0.0206116     0.67327    0.212042   0.0865766     3.26388     1.14857    0.512894    0.362834  0.00744918     1.91873     11.2932    0.317848    0.488569  0.00956818     1.14579     586.877    0.120869    0.509313   0.0938152    0.450921     72.4941   0.0089502    0.508676    0.162688     0.18338     16.2927    0.206316    0.358295    0.357484   0.0182679     6.36092      1.2147    0.251819    0.433455  0.00886844     2.85541     4.63836   0.0939272    0.468537     0.09763     1.20463     18.4241  0.00343438    0.444625    0.219638    0.411288     195.624   0.0604652     0.35686    0.349092   0.0617906     196.041    0.392634    0.226687    0.446172  0.00315399     18.4907     1.18567   0.0969786     0.48373   0.0973248     4.66133     2.85881    0.012005    0.458023    0.241452     1.20109     6.35652   0.0178637    0.360921    0.365435    0.205519     16.2524     0.19258    0.226763    0.464237   0.0184737     73.2815    0.603514     0.10743    0.552333   0.0977573     593.046      1.1149   0.0145563    0.458713    0.295902     11.3361     2.00759  0.00644843    0.366308    0.493991     1.05421     3.33086   0.0968067    0.196912    0.583052  0.00664368     4.79341
    4.27745   0.0144329    0.525847    0.174847   0.0846663     2.77399    0.940519    0.449523    0.307849  0.00794693     1.72702     9.47255    0.256652    0.443078   0.0183159    0.984192       499.9   0.0956573    0.484306   0.0824784     0.45334     62.3506 0.000435712    0.394225    0.183379    0.065976     13.4651    0.173345    0.336077    0.294438   0.0220696     5.41673     1.10417    0.199016    0.372642  0.00395963     2.44408     3.97487   0.0887966    0.426615   0.0735921     1.00936     15.6547  0.00387062    0.399005    0.185048    0.327481     166.838   0.0609834    0.295812    0.296361   0.0583183     167.107    0.339617    0.203329    0.368718  0.00373848     15.7402     1.03188   0.0696153    0.391648   0.0761232     3.91797     2.47031   0.0138756    0.366054    0.216155     1.05935     5.46913   0.0182616    0.297959    0.347531    0.180504     13.3823    0.163286    0.197364     0.45747  0.00177101     62.4835    0.457703   0.0811801    0.437534    0.101274     503.849    0.952228   0.0113339    0.429073    0.262408     9.85592     1.64376   0.0116667    0.307163    0.458888    0.927431     2.78111   0.0855393    0.187845    0.490488   0.0146419      4.3115
    363.279      1.0573     44.2659     17.1273     7.60305     233.138     80.5711     35.9379      26.885    0.654215     143.576     815.494     22.2894     34.2775     1.09568     81.2521     42456.3     7.80713     37.5427     6.89907     39.3682     5262.28 0.000642832     35.6285     16.2925     13.4651     1139.42     14.7781     28.4891     24.9963     1.71221     461.943     88.8676      17.717      31.853    0.605566     206.983     335.024      6.9183     34.3973     6.58099     87.3441     1330.33    0.253974     32.1134     15.9334     29.0608     14102.7     4.69591     25.4183     25.2774     4.67963     14110.1     29.0088     16.1725     32.0989    0.253738     1331.12     87.4938     6.91631     34.3686     6.90604     335.049     206.636    0.610358     31.5164     17.7388     89.2528     461.967     1.66742     25.0275     28.6325     14.7299     1142.79     13.5322      15.494     35.7731  0.00103139     5265.94      38.844     7.03929     38.1113     7.75103     42657.2     80.7962     1.03614     34.2646     22.3614      818.96     143.564    0.613922     26.5203     36.4813     81.0171     232.242     7.55219     17.1552     44.2519     1.09966     362.758
    4.77613   0.0134664    0.553153    0.212483    0.104356      3.0219      0.9779     0.47429      0.3482   0.0052586     1.87201     10.7935    0.267929    0.447006    0.016637     1.03088     546.117    0.114165    0.514474   0.0873915    0.513117     67.4852 1.36327e-05     0.45734    0.206318    0.173345      14.778    0.196319    0.377484    0.319534   0.0230253     5.92572      1.1862    0.226671    0.400232  0.00823815     2.68647     4.20611   0.0891735    0.433799   0.0881913     1.13697      17.187  0.00223721     0.38636    0.199925    0.381124     180.919   0.0567682    0.322433    0.324311   0.0607143     180.738    0.386389     0.22565     0.40902  0.00408815     17.1353     1.11138   0.0986137    0.439571   0.0819954     4.26158     2.64623  0.00633902    0.398552    0.237814     1.16847     6.02032   0.0195567    0.316026    0.352992    0.180323     14.5617     0.17677    0.211865    0.447032 0.000261246     67.7158    0.477331   0.0908676    0.496895   0.0987288     549.202     1.10988   0.0128021    0.436162    0.263697     10.6195     1.83826  0.00886352    0.333811    0.467982     1.05584     3.01586   0.0920761     0.21072    0.581765   0.0134679     4.73418
    8.98323   0.0293812     1.12312    0.439116     0.18428     5.86346     1.93667    0.864463    0.684752   0.0185589     3.42001     20.2877    0.548822    0.837612   0.0279547     2.03772     1053.46    0.193154    0.921433    0.156022    0.988231     130.801 6.79989e-05    0.896559    0.358293    0.336077     28.4893    0.377481    0.732384    0.615257   0.0453227     11.5132     2.20466     0.44013    0.793498   0.0244351     5.09137     8.39903    0.171982    0.862032    0.166463     2.17417     32.9638  0.00573541    0.812217    0.411022    0.712246     350.289    0.122551    0.634638    0.627986    0.116608     349.622     0.72157    0.384979    0.781032  0.00415568     32.9632     2.16811    0.168642    0.856683    0.172076     8.39599     5.13349  0.00858034    0.776778    0.443424     2.23911     11.4912   0.0407986     0.58894    0.745677    0.347884     28.6104    0.329786    0.389017    0.866376 0.000345404     130.379    0.959171    0.181928    0.965217    0.185998     1057.97     2.06961   0.0235006    0.931987    0.561981     20.3703     3.53571   0.0137195    0.607621    0.885529     2.04722     5.79645    0.167042     0.41854     1.14969   0.0283641     8.89944
    8.00888   0.0217513    0.943815    0.273124    0.149742     5.14625     1.75243    0.828741    0.570503   0.0215379     3.21061     17.7618    0.462454     0.75933   0.0244693     1.66825     922.762    0.173493    0.800402    0.166546    0.860794     114.756 5.49331e-05    0.765665    0.357484    0.294439     24.9963    0.319543    0.615257    0.571549   0.0361081     10.0929     1.90546    0.387889    0.704962    0.014055     4.46441     7.29834    0.149512    0.753227    0.148636     1.90294     28.8872  0.00545584    0.706472    0.351937    0.617386     306.942    0.107661    0.551059    0.556209   0.0991227     306.841    0.628962    0.343294    0.696491  0.00489625     28.9021      1.9014    0.146869    0.755177    0.137854      7.2422     4.53577   0.0121235    0.670383    0.388227     1.96561     10.0647   0.0378181    0.547885    0.612557    0.341245     24.9946    0.304531    0.355856    0.779341  8.3457e-05      115.04    0.846489    0.159856    0.829853     0.21574     927.189     1.69074    0.020785    0.727417    0.517485     17.8927     3.06931   0.0165187    0.563437    0.800973     1.81634     5.13014     0.16073    0.280293    0.970934   0.0261891     7.93027
   0.552866  0.00295852    0.087165   0.0229733   0.0154488    0.336549     0.11816   0.0698512   0.0396904  0.00129147    0.220186     1.17655   0.0391371   0.0503443  0.00124281    0.107264     63.4421   0.0112893   0.0665088   0.0122951   0.0617216      7.8029 0.000137495   0.0559727    0.018268   0.0220685     1.71219   0.0230266   0.0453232    0.036108  0.00731389    0.712896     0.13539    0.024703   0.0453863  0.00159545    0.307109    0.503025   0.0112157   0.0524647  0.00988229    0.132079     1.98415  0.00113641   0.0503811   0.0230248   0.0448067     20.9712  0.00758503   0.0369101   0.0386266  0.00795378     21.0729   0.0425128   0.0264204   0.0471739 0.000540811     1.99171    0.125861  0.00918548   0.0498857   0.0103154     0.51448    0.323849 0.000956332   0.0481299   0.0250896    0.129168    0.710727  0.00183156   0.0369986   0.0392689   0.0204832     1.75579   0.0160107   0.0263111    0.054954 0.000365703     7.91417   0.0609256  0.00890052   0.0697705  0.00961551     64.0193     0.12846  0.00165387   0.0501275   0.0236602     1.19379    0.226576   0.0008341   0.0465472   0.0432107     0.13225    0.296158   0.0156684   0.0251655   0.0694276  0.00114424    0.553259
    145.029    0.386039     17.5051     6.78632     3.01316     93.1411     32.5268     14.6106     10.6878    0.254259     58.0315     327.234     8.94268     13.8364    0.426162     32.4009     17047.1     3.01564     15.0201     2.76503     15.7213     2112.09 2.20176e-05     14.3324     6.36087     5.41668     461.942     5.92576     11.5132     10.0929    0.712903     184.407     35.5581     7.09946     12.7064     0.24829     83.2933     134.375     2.75344     13.8526     2.61444      35.111     534.406   0.0998895     12.8782     6.44631     11.6971     5661.55     1.83729      10.179     10.1636     1.90736     5667.01      11.619     6.48383     12.8979   0.0963144     534.545     34.9978     2.66065     13.6892     2.74358     134.575     83.0466    0.249546     12.8317     7.13375      35.695     184.703    0.677855     10.0004     11.4686     5.92118      462.02     5.42526     6.46834     14.2249  0.00055114     2113.14     15.6705      2.8029     15.2744      3.0981     17130.6     32.7163    0.427883     13.7412     8.87195     328.743     57.9837    0.250175     10.6572     14.5934     32.3804      93.143     3.02771     6.67381     17.4528    0.429512     145.505
    27.6126    0.069851     3.42307     1.29757    0.543993     18.0668     6.22151     2.88178     2.02603    0.047339     11.2103     62.4236     1.74933     2.64563   0.0868004     6.27574     3272.73    0.576369     2.91646    0.531669     3.02694      403.25  0.00171957     2.74468     1.21472     1.10418     88.8677     1.18615     2.20466     1.90546     0.13539      35.558     6.72839     1.39245     2.46494    0.054113     16.0083     25.9188     0.54301     2.66211    0.525438     6.71934     102.117   0.0182652     2.47976     1.23252     2.24253     1087.47    0.362714     1.94558     1.95521    0.371035     1088.42     2.26332     1.23051     2.46174   0.0182626     101.996     6.63598     0.50081     2.61955    0.510611     26.0486     15.9114   0.0552263     2.42637     1.38577     6.71867     35.5053    0.127046     1.90244     2.18242      1.1644     88.5199      1.0304     1.23657     2.77317 0.000822015     404.954     2.99142    0.555253     2.94519    0.590046     3290.53     6.26513   0.0892171     2.58821     1.70328      62.351     11.2638   0.0501478     2.07526     2.73839      6.2682     17.8998    0.544735     1.35092     3.26836   0.0839008     27.7149
    5.79958   0.0113957    0.681837    0.270505    0.116383     3.61686     1.24994    0.561446    0.412854   0.0103079     2.20347     12.6664    0.344304    0.510366   0.0193366     1.22121     658.908    0.122051    0.537616    0.108592    0.608864     81.3182 0.000122534    0.553817    0.251823     0.19902      17.717    0.226672    0.440131    0.387885   0.0247023     7.09947     1.39246    0.293398    0.483781  0.00880599     3.21692     5.15233     0.10724    0.534251    0.098258     1.34438     20.6486  0.00432494    0.498652    0.236026     0.45339     218.288   0.0630467    0.397841     0.38755   0.0731158      218.57    0.446197    0.256671    0.501505  0.00380398     20.6534     1.35168    0.111201    0.543375    0.106907     5.18714     3.21449   0.0104774    0.488747    0.290131      1.3744     7.17349   0.0267298    0.394859    0.427596    0.233281     17.7156    0.223442    0.251921    0.531973 0.000388057     81.6871    0.574258    0.100873    0.576592    0.126285     661.575     1.27143   0.0174645    0.509728    0.327849     12.6631     2.23662  0.00829416    0.404656    0.582588      1.2423     3.64133    0.109263    0.257182    0.666105   0.0179248     5.82302
    9.81686   0.0247012     1.26337    0.486838    0.191205     6.36081     2.15036     1.02001    0.745195    0.020385     3.86531     22.4168    0.623859    0.934736   0.0311856     2.26144     1167.23    0.226158     1.03443    0.211802      1.0835     144.585 0.000891286    0.955377    0.433456    0.372646     31.8532    0.400235     0.79349    0.704962   0.0453857     12.7065     2.46493    0.483784    0.959614   0.0167539     5.72277     9.13341    0.182326    0.953313    0.180718      2.3941       36.55  0.00734356    0.877188    0.434068    0.815876     387.453    0.113531    0.696333    0.698668    0.133834     388.554    0.796769    0.447162     0.88122  0.00541138     36.6096     2.36649    0.175748    0.940305    0.183907     9.15648     5.69985    0.018319     0.85551    0.487371     2.46934     12.7087   0.0499366    0.686951    0.769597    0.425852     31.6878     0.38961    0.458086    0.977947 9.51607e-05     145.046      1.0892    0.196596     1.10238    0.209172     1174.04     2.26217   0.0251562    0.923079    0.618566     22.4659     4.01171   0.0192974    0.731086     1.02478     2.19273      6.3072    0.195337    0.463752     1.21353   0.0288489     9.76311
   0.210799  0.00161499   0.0195627   0.0119386  0.00620461      0.1323   0.0487797   0.0159918   0.0178616  0.00107229   0.0546586    0.462047   0.0104957   0.0198771 0.000349325   0.0521362     22.9923  0.00259335   0.0224623  0.00354736    0.029373     2.87264 6.60682e-05   0.0115381  0.00886791  0.00395992    0.605568  0.00823735    0.024435   0.0140548  0.00159508    0.248293    0.054113  0.00880504   0.0167539  0.00123298    0.114754     0.17402  0.00443128   0.0166248  0.00328353   0.0465703    0.721428 1.25949e-05   0.0151407   0.0069426   0.0201663     7.55801   0.0013807   0.0147888   0.0125523  0.00250814     7.58526   0.0158323   0.0083908   0.0178964 5.11047e-05    0.693983   0.0506204  0.00309732   0.0192611  0.00303071    0.183756    0.105473 0.000647468   0.0155449  0.00991863   0.0493482    0.255918 0.000539277   0.0109453    0.013536  0.00743066    0.616684   0.0124259  0.00536389   0.0269111  0.00155323     2.85136   0.0234018  0.00167604   0.0187784  0.00396251     22.8629    0.070143 0.000928452    0.020607   0.0116347     0.42192   0.0759918 0.000655408   0.0120458   0.0187431   0.0541482    0.131138  0.00388468   0.0105703   0.0338913  0.00139956    0.213642
    65.1579    0.170305     8.02291     3.07849     1.38463     41.6325     14.7437     6.52531     4.81864    0.120878     25.8899     146.874      4.0224     6.20759    0.200794     14.6639     7658.02     1.41688        6.89     1.25476     7.04488     947.347 0.000531262     6.45192     2.85544     2.44407     206.984     2.68649     5.09139     4.46441    0.307112     83.2936     16.0082     3.21694     5.72275    0.114749     37.4583     60.6059     1.26261     6.17071     1.16158     15.7576     239.662   0.0505543     5.79868     2.92246     5.18371     2542.75    0.863039     4.58416     4.57136    0.846309     2542.89     5.24148     2.85507     5.78492   0.0420317     239.905     15.7105     1.20533     6.18072      1.2117     60.5546      37.598    0.106264     5.69144     3.19024     15.9605     82.9979    0.296479     4.53826      5.1388     2.62952      207.41     2.40568     2.91943     6.40255 0.000139095      948.35     7.07367      1.2924     6.91638     1.38511     7693.02     14.7524    0.201185     6.23571     4.02077     147.465     25.9068    0.104981     4.89232     6.55631     14.5782     41.5199     1.40189     3.05886     7.86624    0.199365     65.0817
    104.743     0.28164     12.6907     4.98544     2.15754     67.6542     23.5225     10.7288     7.75974    0.184069      41.755     237.375     6.46759     9.87902    0.315109     23.6375     12353.8     2.38519     10.8756     2.02871     11.3344     1530.72 8.54608e-05     10.3822     4.63836     3.97491     335.024     4.20611       8.399     7.29827    0.503027     134.375     25.9189     5.15237     9.13343    0.174022     60.6062     97.1681     1.97452     9.95605     1.91337     25.4731      387.37   0.0656398     9.23174     4.62495     8.50702     4099.76     1.32957     7.40551     7.35463     1.37074     4105.61     8.42467     4.64415      9.3417   0.0727374     387.587     25.4098     1.94087     9.95083     1.96494     97.2513     60.5165    0.191499     9.21278     5.18652     26.0141     134.586      0.5047     7.23074     8.27366     4.31249     335.013     4.02694      4.6736     10.4245 0.000316981      1533.1     11.2558     2.02306     10.9308     2.27798     12413.8     23.4214    0.313858     9.87615     6.42617     237.997     41.6294    0.197964     7.80963      10.649     23.5625     67.4763     2.14775     4.97654     12.8996    0.322793     104.703
    2.18907  0.00280299       0.246   0.0971228   0.0408009     1.36952    0.511275    0.208505    0.173625  0.00334838    0.838557     4.86301    0.134509    0.208167  0.00550565    0.460605      253.28   0.0386337    0.228978   0.0447042    0.245324     31.2228 0.000126732     0.21915   0.0939292   0.0887982     6.91833   0.0891753    0.171982    0.149514   0.0112152     2.75344    0.542998    0.107241    0.182327  0.00443102     1.26262     1.97452   0.0452776    0.205106   0.0418999    0.516364     7.95937  0.00103961    0.185914    0.090634    0.177173     83.8867   0.0261391    0.151683    0.150663   0.0258983     83.9614    0.171319   0.0955195    0.191603  0.00141326     7.93699    0.513079   0.0410847    0.203044   0.0371406     2.00681     1.24732  0.00476184    0.191813    0.109228    0.528959     2.75475   0.0108979    0.142502     0.17614   0.0908979     6.83216   0.0705835   0.0986316    0.214022 0.000297408     31.4408    0.223712   0.0378244     0.23238   0.0400971     253.472    0.443735  0.00821481      0.1981    0.143679     4.81548    0.802275  0.00217828    0.161714     0.20877    0.444714     1.38009   0.0451635    0.103269    0.254894  0.00511893     2.18501
    10.5944   0.0265456     1.29393    0.507324    0.209558     6.89591     2.43278     1.12529    0.806031   0.0174391     4.32669     24.4019    0.658361     1.00731   0.0281611     2.40072     1265.83    0.226383      1.0837    0.212215     1.13608     156.633 4.82431e-05     1.06978     0.46854    0.426614     34.3973    0.433795    0.862031    0.753225   0.0524663     13.8526      2.6621    0.534251     0.95331   0.0166244     6.17071     9.95606    0.205109     1.03155    0.192847     2.63361     39.7606  0.00587371    0.918933    0.469021    0.893008     420.229    0.133662    0.759442    0.754405    0.139391     420.616    0.860554    0.476106     0.96843  0.00681671     39.6674     2.62827    0.201254     1.03016    0.214926     10.0231     6.25328   0.0201637    0.971419    0.545856     2.68293     13.7522   0.0522506    0.732187    0.839142    0.449233     34.4531    0.393104    0.480897     1.04828 0.000221739     156.803      1.1665    0.217545     1.09135     0.24015      1272.3     2.44522   0.0345192     0.99224    0.651976     24.5204     4.24174   0.0174586    0.806573      1.0901     2.43216     6.88154    0.214428    0.520001     1.30127   0.0285033     10.6472
    2.09033  0.00667758    0.231686   0.0905168   0.0445893     1.33909    0.480175     0.21206    0.151248  0.00444392    0.848526     4.75918    0.113304    0.193093  0.00672878    0.461496     243.958   0.0480937    0.233325    0.042693    0.220242     30.3595 0.000451987    0.209747   0.0976313   0.0735917     6.58094   0.0881905    0.166463    0.148636  0.00988199     2.61443    0.525431   0.0982585    0.180718  0.00328347     1.16159     1.91337   0.0419012    0.192847   0.0341149    0.489417     7.69589  0.00104195     0.17718   0.0877232    0.174055     80.9261   0.0248178    0.143729    0.144632   0.0268008      81.089    0.168058   0.0909334    0.195567 0.000977885     7.54739    0.500652   0.0399857     0.20658   0.0366688     1.90828     1.18562  0.00192906    0.178179     0.10407    0.506754     2.67556   0.0102651    0.132706     0.15865   0.0966286     6.61403   0.0874588   0.0959305     0.21008 1.43014e-05     30.2674    0.228034    0.041663    0.220423   0.0441838     245.221     0.45078  0.00581926    0.193572    0.130637     4.89094    0.834442  0.00740923    0.161302    0.217952    0.482469     1.34621   0.0451445    0.096444     0.25983  0.00672979     2.09899
    27.5828   0.0809511     3.30054     1.26628    0.563187      17.706     6.22423      2.8283     2.03474   0.0503837     10.9676      62.527     1.71352      2.6038   0.0804109     6.22824     3232.05    0.579735     2.90117     0.54314     2.99437      400.26 0.000358107     2.72009     1.20463     1.00934     87.3444     1.13697     2.17417     1.90294    0.132081      35.111      6.7194     1.34438     2.39409   0.0465719     15.7576     25.4731    0.516362     2.63361     0.48942     6.81237     101.173   0.0212598     2.48706     1.23108     2.20533     1073.92    0.357113     1.93426     1.93123    0.344558     1074.29     2.21711     1.21861     2.44052   0.0169361       101.5     6.62999    0.509054     2.63842    0.509584     25.4699     15.7625   0.0510165     2.42231     1.35027     6.75631     34.9884    0.127412     1.91943     2.16242     1.12203     87.5568     1.03127     1.18781     2.72476 0.000459932     400.903     2.97088    0.551544     2.84673    0.603872     3247.43     6.16969   0.0845462     2.61277     1.68248      62.552     10.8311    0.046001     2.05068     2.70072     6.19005     17.6945    0.557126     1.26225       3.378   0.0807567     27.4595
    417.699     1.10231     51.0747      19.654     8.65567     267.866     93.6468     41.9854     31.0318    0.745499     165.947     945.368     25.9328      39.755     1.22982     94.0762     49103.6     8.97003     43.6338     8.10372     45.1755     6087.79  0.00160267     41.1448     18.4241     15.6547     1330.33     17.1867     32.9637     28.8873     1.98417     534.403     102.117     20.6486     36.5501    0.721447     239.661     387.371     7.95932     39.7608     7.69595     101.173     1538.35    0.274944     36.9288     18.4725     33.6957     16308.7     5.35007     29.3805     29.3616     5.44479       16320     33.5728     18.5906     36.9714    0.270191     1538.56      101.03      7.7472     39.7766     7.80096     388.131      239.55    0.743915     36.6611     20.5774     102.669     533.773      1.9747     28.8997     32.8437     17.2924      1330.3     15.6978     18.6217     41.1748 0.000314233     6092.66     45.0699     8.10255     43.9579     8.86427     49339.2     94.0035     1.28606     39.5318      25.867     947.591     165.733     0.74297     30.8966     41.9058     93.7163     267.969     8.69192     19.5734     50.8321     1.19222     417.753
  0.0826792 0.000348836  0.00987375   0.0036581  0.00197653   0.0507579   0.0156875   0.0111815  0.00679432 0.000285908   0.0325626    0.177135  0.00543065  0.00699871 0.000111819   0.0172075     9.20057  0.00146193  0.00959711  0.00214784  0.00590921     1.12153 0.000345338  0.00619701  0.00343442   0.0038708     0.25398  0.00223695  0.00573547  0.00545507  0.00113666   0.0998882    0.018264  0.00432463  0.00734307 1.25997e-05   0.0505559   0.0656357  0.00103962  0.00587339  0.00104195   0.0212601    0.274956  0.00034034  0.00762544   0.0041102  0.00570728     3.04801  0.00127242  0.00549961  0.00553083  0.00134997     3.04361  0.00617226  0.00429002  0.00690622 0.000180229     0.29322   0.0188032  0.00154504  0.00678102  0.00161013   0.0688996   0.0453005 0.000233296  0.00750029  0.00418691    0.022352   0.0977947  0.00083236  0.00562187  0.00772668   0.0025477    0.252702  0.00234473   0.0038888   0.0078772 0.000149501     1.14617  0.00792341  0.00233793  0.00927892  0.00160897     9.14035   0.0146682 0.000211834  0.00620851  0.00589078      0.1672   0.0351057 4.26119e-05  0.00667445  0.00740259   0.0183277   0.0460275   0.0025572  0.00383533  0.00879022 0.000423837   0.0797852
    10.1479   0.0283895     1.21225    0.450943    0.200872      6.5715     2.21564    0.995178    0.751294   0.0185106     3.97003     22.8626    0.616766    0.993665   0.0311356     2.27263     1181.91    0.229323     1.05587    0.202237     1.08586      146.82 0.000218913    0.985786    0.444628     0.39901     32.1135    0.386359    0.812222    0.706471   0.0503808     12.8782     2.47977    0.498652    0.877187   0.0151412     5.79873     9.23174    0.185915    0.918931    0.177179     2.48707     36.9288  0.00762505    0.888113    0.454418    0.807424     393.268    0.131539    0.708893    0.704152    0.132968     393.618    0.812914    0.448542    0.902279  0.00556993     36.9251      2.4358    0.189646    0.954137    0.189749     9.28653     5.73235   0.0165128    0.869363    0.490352     2.45829     12.7989   0.0491065    0.705106    0.807905    0.426118     32.1847    0.366008    0.444454    0.989834 7.76888e-06     146.816     1.09172    0.200455     1.04091    0.223885     1188.38     2.29148   0.0328532    0.949762    0.630878     22.7851     3.99516   0.0146695    0.774992     1.00792     2.20676     6.58148    0.199895    0.456121     1.25493     0.03371     10.1938
    4.95596   0.0128673    0.604862    0.230145   0.0997041     3.20919     1.12128    0.518003    0.365023  0.00591862     1.98122     11.3735    0.309205    0.485871   0.0142995     1.13684     590.385    0.105152    0.525201   0.0943419    0.540581     73.0411 6.02026e-05    0.487053    0.219639    0.185049     15.9334    0.199923    0.411019    0.351935    0.023026     6.44634     1.23252    0.236024     0.43407  0.00694264     2.92245     4.62499   0.0906352    0.469015   0.0877238     1.23109     18.4728  0.00410996    0.454422    0.219601    0.398347     196.256   0.0642701    0.356054    0.351624   0.0658266     196.438    0.398325     0.22443     0.44206   0.0032402     18.5368     1.21032   0.0935556     0.47756   0.0943435     4.63868     2.87113  0.00958011    0.452341    0.248715     1.23326     6.42069   0.0262093    0.354012     0.39026    0.212213     16.0853    0.196594    0.224004    0.486879 1.38475e-05     73.4266    0.543881   0.0978777    0.516103    0.108957      592.82     1.14007   0.0151452    0.467738    0.295486     11.4298      2.0284  0.00899036    0.382943    0.502092     1.13089     3.21583    0.101145    0.231537    0.603437   0.0130964     4.95192
    9.09451   0.0224715     1.09764    0.432774    0.178723     5.88375     2.08432     0.90753    0.656995   0.0133435      3.6432      20.556    0.576952    0.875058   0.0291359      2.0643     1074.78     0.20113    0.943177    0.174397    0.996759     133.168 0.000457153    0.931868    0.411292    0.327486     29.0606    0.381121    0.712243    0.617388   0.0448074     11.6971     2.24251    0.453389     0.81587   0.0201665     5.18376     8.50704    0.177173    0.893023    0.174059     2.20533     33.6956  0.00570731    0.807436    0.398346    0.742375     356.786    0.118431    0.637189    0.642064    0.117906     356.884    0.739012    0.400499    0.809606  0.00552001     33.7071     2.21656      0.1695    0.860963    0.168654     8.48205     5.22067   0.0185641    0.806987     0.44278     2.24495     11.6462   0.0413112    0.625868    0.721028     0.37056     29.0046     0.32422    0.410884     0.91283 1.66842e-05     133.353     0.99788    0.179444    0.946528    0.198534     1079.42     2.06405   0.0274825    0.840354    0.558423     20.7099     3.61676   0.0185824    0.689628     0.91344     2.07278     5.88204    0.176154    0.434662     1.09369   0.0266283      9.1039
    4427.67     11.8097     540.709     207.079     91.8149     2842.47     992.654     446.873     329.212     7.74344      1760.4     10022.5     274.311     421.548     13.2226     998.504      520561     96.4999     462.656      85.893     479.172     64510.6  0.00178191      437.29     195.624     166.838     14102.7     180.918     350.288     306.942     20.9716     5661.54     1087.48     218.287     387.456     7.55812     2542.76     4099.76     83.8858     420.228     80.9258     1073.92     16308.6     3.04823     393.267     196.256     356.791      172904     57.0117     311.846     310.937     57.5004      173031     355.362     196.836     393.131     2.94733     16325.6     1071.29     81.9113     420.636      83.144     4110.44     2538.63     7.83376     388.183     218.298     1090.86     5657.62     20.8558     307.133     349.266     181.714     14101.3     166.722     196.952     436.908 0.000726654     64584.3     477.519     86.5679     464.896     95.0746      523100      996.98     13.2617     419.462     274.335     10050.7     1760.21     7.72737     329.011     443.913     992.655     2842.56     91.8058      207.18     540.005     12.7894     4427.97
    1.44917  0.00512108    0.179919    0.063173   0.0320841    0.944498     0.32167     0.15037    0.115331  0.00113548    0.569259     3.31114    0.090302    0.149663  0.00362939     0.33819     171.136   0.0336591    0.149531   0.0336303    0.155021     21.2761  5.2402e-06    0.139819   0.0604662   0.0609833     4.69597   0.0567727    0.122547     0.10766  0.00758506      1.8373    0.362721    0.063045    0.113528  0.00138039    0.863056     1.32953   0.0261382    0.133663   0.0248169    0.357106     5.34997  0.00127272    0.131544   0.0642723    0.118433     57.0103   0.0205526    0.102476    0.102318   0.0191888       57.08    0.114355   0.0697778    0.139638   0.0022373     5.33342    0.351026   0.0263927    0.141152   0.0235595     1.35551    0.827223  0.00231238    0.121579   0.0734294      0.3569     1.90238  0.00867354    0.100005    0.119074   0.0629029      4.6587   0.0576095   0.0709983    0.143868 8.56026e-05     21.2768    0.152991    0.032702    0.156812   0.0324103     172.704    0.329631  0.00345723    0.154673   0.0954528     3.29439    0.594962  0.00243954     0.11077    0.137479    0.322145    0.945507   0.0319656   0.0622227    0.172713  0.00290988     1.45022
    7.93991   0.0216616    0.963667    0.371713    0.161982      5.0874     1.78116     0.79016    0.581161   0.0125792     3.18563     17.9399    0.495695    0.765607   0.0219075     1.78089     939.337    0.171764    0.820204    0.152747    0.865594     116.142 2.77223e-05    0.790535    0.356865    0.295808     25.4182    0.322432    0.634645    0.551062   0.0369106      10.179     1.94556    0.397842    0.696323   0.0147884     4.58415     7.40545    0.151683    0.759437     0.14373     1.93426     29.3804  0.00549955    0.708894    0.356051    0.637192     311.849    0.102477    0.562917    0.561038    0.103559      312.08    0.639299    0.354251    0.708227  0.00493461     29.4472     1.93095    0.145949    0.764635    0.153462     7.41319     4.58575   0.0133696    0.696244    0.396161     1.94504     10.1778   0.0372986    0.555188    0.630417    0.331746     25.4373    0.302658    0.354048    0.790296 1.98379e-05     116.258    0.867441    0.155718    0.835697    0.172676     944.374     1.78582    0.024092     0.75971       0.491     17.9697     3.15663   0.0135417    0.599006    0.800711     1.77922     5.08786    0.161958    0.370631      0.9778   0.0237415     7.94102
    7.97124   0.0184844    0.984237    0.385054    0.166716     5.11291     1.78534    0.798523      0.5923   0.0157317     3.15906     18.1598    0.491529    0.762693   0.0262905     1.80082     935.544    0.172943    0.824414    0.156793    0.864458     115.902  3.3195e-05    0.784469    0.349093     0.29636     25.2772    0.324316    0.627992    0.556206   0.0386254     10.1637     1.95523    0.387548    0.698671   0.0125525     4.57135     7.35462    0.150663    0.754403    0.144632     1.93122     29.3615  0.00553085    0.704152    0.351626    0.642063     310.938    0.102318     0.56104    0.559865    0.103528     311.116    0.643458    0.353945    0.706749   0.0056512     29.3503     1.94143    0.147756    0.753904    0.151415     7.39862     4.54278   0.0150532    0.696915    0.393152     1.96583     10.1481   0.0373609    0.551223    0.628412    0.322216     25.3421    0.296941    0.357894    0.776866 1.21482e-05     116.167    0.862462     0.15684     0.82834    0.169252     940.028     1.79099   0.0236828    0.751447    0.495265     18.2524     3.19087   0.0137928    0.581454     0.80078     1.78656     5.11262    0.166427    0.385235    0.975521   0.0221026     7.97626
     1.4489   0.0039457    0.182164   0.0717319    0.027084    0.949099    0.333606    0.149079    0.105017   0.0024031    0.573339     3.33835    0.088683    0.139162  0.00511302    0.324219       172.9   0.0336808    0.162973   0.0312452    0.159211     21.4055 1.81947e-05    0.143519   0.0617892   0.0583159     4.67964   0.0607133    0.116607   0.0991224  0.00795413     1.90735    0.371035   0.0731148     0.13383  0.00250823    0.846304     1.37075   0.0258965    0.139389   0.0268012    0.344551      5.4447  0.00135003    0.132971   0.0658256    0.117902        57.5   0.0191882    0.103561     0.10353   0.0237919     57.5693    0.118556    0.065009    0.128217 0.000900689     5.48476    0.363794   0.0283117    0.137781   0.0317593     1.38362     0.84987  0.00281664    0.127576   0.0734365    0.372683     1.87691  0.00594659    0.104115    0.117561   0.0549892      4.6722   0.0535617   0.0732772    0.144055  4.7514e-05     21.5411    0.159177   0.0316693    0.154596   0.0368641     174.397     0.30488  0.00415664    0.154649   0.0885546      3.3867    0.604191  0.00163368    0.115461     0.13628    0.332983    0.945749   0.0286952   0.0727466    0.179274  0.00410347     1.44388
    4429.97     11.6845     540.885     207.401     91.7797     2844.73     992.863     447.571     328.666     7.65557     1762.32     10029.2     274.499     421.647     13.2489     998.758      520941     96.7094     463.592     85.7409     479.397     64546.8  0.00300623      436.86     196.041     167.106     14110.2     180.734      349.62      306.84     21.0729     5666.98     1088.43     218.572     388.554     7.58557     2542.89     4105.61     83.9609     420.614     81.0883     1074.28       16320     3.04389     393.616     196.439     356.885      173030     57.0803     312.078     311.111     57.5691      173147     355.898     196.731     392.922     2.92274     16338.5     1072.12     82.2009      420.25     83.4703     4114.72     2542.24     7.89153     388.644     218.086     1092.62      5656.3     20.8723     307.287      349.51     181.713       14112      166.04     196.951     436.724  0.00119412     64627.1     477.377     86.6257     465.235     95.0986      523464     997.104     13.2179     419.926     273.975     10056.9     1763.21      7.7799     329.279     445.211     993.356     2844.82     91.8386     207.265     540.125     12.8711     4429.82
    9.03279   0.0265759     1.14317    0.410467    0.180211     5.84596     2.05284    0.934264    0.707088   0.0165336     3.62519      20.403      0.5727    0.842992   0.0270515     2.03697     1070.68    0.192904    0.974681    0.177248     1.00705     132.435 4.00209e-05    0.893864    0.392639    0.339615     29.0086    0.386395    0.721571    0.628962   0.0425119      11.619      2.2633     0.44619    0.796776   0.0158318     5.24146     8.42462    0.171318    0.860561    0.168056      2.2171     33.5724  0.00617193    0.812928    0.398326    0.739006     355.358    0.114354    0.639297    0.643457    0.118554     355.901    0.728648    0.410296    0.807234  0.00674762     33.6068     2.22451     0.15678    0.891851    0.168945     8.45494     5.20398   0.0162915    0.799064    0.439737     2.21375     11.7039    0.041154    0.634113    0.720043    0.368278     29.0494    0.319749    0.412357    0.902377  0.00023076     132.868    0.995348    0.180509     0.96252    0.205552     1076.36     2.05634   0.0329643     0.86044    0.568992     20.3759     3.65117   0.0128175     0.68225    0.922289     2.04322      5.8388    0.178029    0.408688     1.11786   0.0295359     9.04852
    4.92676   0.0128235    0.651261    0.234235    0.117953     3.31303     1.08277    0.508602    0.385908  0.00817359     1.99359     11.4741    0.301576    0.472837   0.0127336      1.1312     591.765    0.117666    0.530329   0.0976686    0.547648     73.1214 0.000172425    0.507812    0.226688    0.203329     16.1726    0.225656    0.384981    0.343294   0.0264202      6.4839      1.2305    0.256672    0.447164  0.00839164     2.85508     4.64415   0.0955215    0.476102   0.0909338     1.21861     18.5903  0.00428979    0.448544    0.224431    0.400496     196.834   0.0697786    0.354253    0.353941   0.0650067     196.729    0.410303    0.233266    0.439192   0.0042638     18.5388     1.21212    0.100025    0.472401   0.0909107     4.68295      2.8957   0.0101033    0.459137    0.246331     1.24795     6.39089   0.0225421    0.351548    0.404318    0.211457     15.9682    0.177833    0.228619    0.487323 3.35835e-05     72.9731    0.535428   0.0903328    0.525985    0.105152     594.772     1.13901   0.0123908     0.46967    0.331928     11.5095     2.02912  0.00967045    0.363798    0.507025     1.09503       3.296    0.117012     0.23249    0.601142   0.0150508       4.899
      10.14   0.0220061     1.21212    0.477153     0.22206     6.51484     2.23528     1.00204     0.77336   0.0176806     3.95065     22.6017    0.626757    0.969279   0.0300465     2.32947     1182.45     0.22628     1.06168    0.192982     1.10082     147.287  8.8371e-06     1.01535    0.446176    0.368726     32.0987    0.409014    0.781028    0.696493   0.0471725     12.8979     2.46174    0.501502    0.881221   0.0178971      5.7849     9.34168    0.191604    0.968432    0.195565     2.44053     36.9714  0.00690579    0.902279    0.442066    0.809614     393.133    0.139636    0.708224    0.706751    0.128216      392.92    0.807236    0.439191     0.89572  0.00946098     36.9462     2.42775    0.190809     0.95106    0.171825     9.37311     5.71295   0.0199485     0.88714    0.479227     2.47694     12.8076     0.04926    0.700578    0.797086     0.41749     32.0688    0.391397    0.454055     1.01264 0.000236908     147.244     1.08472    0.193353     1.03015    0.222991     1187.02     2.27178    0.027712    0.970981    0.643005      22.608     3.96445   0.0161152    0.739423     1.03627     2.23843     6.49461    0.213227    0.468573      1.2501   0.0318386     10.1291
  0.0810879  0.00119193  0.00966685  0.00422836   0.0023858   0.0546534   0.0180865  0.00880161  0.00537705 0.000423013   0.0313195    0.179404  0.00457575  0.00460337 0.000198657   0.0151376     8.73846  0.00112276  0.00845368  0.00138347   0.0074145     1.11306 0.000118474  0.00831079  0.00315398  0.00373856    0.253749  0.00408746  0.00415534  0.00489651 0.000540596   0.0963181   0.0182625  0.00380355   0.0054113 5.10906e-05    0.042032   0.0727373  0.00141345  0.00681683 0.000978031   0.0169365    0.270195  0.00018019  0.00557061  0.00324023  0.00552005     2.94743  0.00223726  0.00493454   0.0056515 0.000900708     2.92252  0.00674642  0.00426361  0.00946137 0.000881007    0.263783   0.0192116  0.00116496   0.0066366 0.000817549   0.0759629   0.0423076 0.000133881  0.00707643  0.00309315   0.0197945   0.0979629 0.000455403   0.0056076  0.00752712  0.00260808    0.238092   0.0028699   0.0047268  0.00762614 6.83241e-05     1.09206  0.00705705  0.00129458  0.00769337  0.00177205     8.83175   0.0168484 0.000657142  0.00706384  0.00514023    0.161305   0.0327772 0.000103962  0.00579045   0.0071709     0.02241   0.0502073  0.00238921  0.00397506   0.0112732 0.000213903    0.079133
    419.249     1.09094     50.9148     19.5876     8.69466     268.893     93.7317     42.1297     31.0403    0.756654     166.675     947.976     26.0038       39.78     1.27502     94.2038     49157.9     9.01886     43.7813     8.15925     45.3799     6091.01  0.00080101     41.3112     18.4907     15.7402     1331.13     17.1352     32.9634     28.9024     1.99172     534.544     101.996     20.6534     36.6095    0.693941     239.905     387.586     7.93699     39.6676      7.5474       101.5     1538.56    0.293206     36.9251     18.5368     33.7072     16325.7     5.33337     29.4471     29.3501     5.48475     16338.4     33.6068     18.5387     36.9459     0.26378     1541.47     101.191     7.73179     39.8295      7.8669     388.176     239.748    0.716612     36.5103     20.6361     102.826     533.431     1.94267     29.0299     32.9667     17.2976     1330.88     15.7335     18.5759     41.2524 0.000108767     6097.13     45.1493      8.2986     43.8333      8.9409     49391.8     94.1026     1.25526     39.5539     26.0615      949.63     166.267    0.734979     31.0841     41.8906     93.9393     268.647     8.67871     19.5126      51.056     1.27792      419.27
    27.4763   0.0780892     3.44293     1.30423     0.56722     17.5016     6.15436     2.81638     2.01418   0.0525706     10.9385     62.4782     1.69198     2.62801   0.0860504     6.24289     3223.55    0.572003     2.77803    0.529659     2.95138     399.848 0.000144316     2.70426     1.18568     1.03187     87.4937     1.11137     2.16811      1.9014    0.125864      34.998     6.63601     1.35169     2.36648   0.0506214     15.7106     25.4098    0.513083     2.62827    0.500644     6.62999      101.03   0.0188045     2.43582     1.21032     2.21654      1071.3    0.351023     1.93094     1.94143    0.363792     1072.13     2.22453     1.21212     2.42775   0.0192125     101.192     6.69412    0.503059     2.61461    0.516035     25.5792      15.719    0.047513     2.38485       1.349     6.78838      35.082    0.130118     1.90854     2.15191     1.09983     87.4059     1.08516     1.24624     2.71135 2.39167e-05     400.328     2.94941    0.536423     2.86572    0.604785     3238.83      6.1781   0.0835722     2.63572     1.69255     62.7137     10.9562   0.0504496     2.01411     2.76119     6.18322     17.4893     0.56005     1.30162     3.31486   0.0882854      27.458
    2.08433  0.00593514    0.237129   0.0892123   0.0413007     1.34775      0.4743    0.228554    0.148823  0.00354502    0.876424     4.77719    0.116214    0.204652  0.00134345    0.481858     246.987   0.0462603    0.228144   0.0374002    0.221474     30.3028 0.000441726    0.212788   0.0969809    0.069615     6.91632   0.0986138    0.168643    0.146871  0.00918512     2.66066    0.500801      0.1112     0.17575  0.00309764     1.20533     1.94089   0.0410856    0.201254   0.0399865    0.509051     7.74713  0.00154518    0.189644   0.0935558    0.169497     81.9117   0.0263941    0.145947    0.147757   0.0283109     82.2012    0.156778    0.100025    0.190812   0.0011646     7.73176    0.503056   0.0430288    0.201459   0.0407815     1.97615     1.19493   0.0040729    0.181133   0.0993541    0.471522      2.6691   0.0128346     0.14129    0.163371   0.0835425     7.01077   0.0845632   0.0913401    0.215058 0.000143662     30.8087    0.222656   0.0406731    0.202701   0.0573079      247.95    0.474975  0.00627181    0.157828    0.113696      4.7609    0.824621  0.00505577    0.143722     0.19802    0.499198      1.3507   0.0369358   0.0834979    0.211581  0.00757813     2.08029
    10.9442   0.0339743     1.32452    0.513805    0.222646     6.90943     2.37991     1.09214     0.81712   0.0246614      4.3282     24.5298    0.655775     1.03442    0.029883     2.44244     1265.13    0.229855     1.04015    0.216641     1.16862     157.319 0.000313923     1.08341    0.483733    0.391651     34.3686    0.439569    0.856684    0.755175   0.0498868     13.6892     2.61957    0.543379    0.940304   0.0192612     6.18074     9.95076    0.203045     1.03016     0.20658     2.63841     39.7765  0.00678062    0.954137    0.477557    0.860967     420.637    0.141152    0.764635    0.753905    0.137783     420.249    0.891851      0.4724    0.951051  0.00663668     39.8294     2.61463    0.201457     1.03903    0.201636     10.0021     6.18349   0.0183912    0.933926    0.542169     2.64707      13.802    0.048384    0.738433    0.841803    0.438398     34.4874    0.442205    0.466804     1.06415 0.000157907     157.281     1.16625    0.206515     1.10776    0.243921     1272.03     2.47956   0.0348044     1.01675    0.646853      24.551     4.26233   0.0232645    0.783215     1.08216     2.38599     6.96527    0.222771    0.526537     1.33626   0.0326877     10.9376
    2.10524  0.00711372    0.258774     0.11071   0.0363122     1.38823    0.485448    0.210526    0.152747  0.00391419    0.826516     4.84176    0.126276    0.198385  0.00985107    0.481003     249.402   0.0511563    0.224532   0.0384187    0.214978     31.0813 3.24905e-05    0.208868   0.0973237   0.0761248     6.90608   0.0819936    0.172077    0.137851   0.0103158     2.74357    0.510606    0.106908    0.183907  0.00303026     1.21169     1.96494   0.0371406    0.214928    0.036669    0.509577     7.80096  0.00161008    0.189747   0.0943423    0.168655     83.1441   0.0235589    0.153462    0.151415   0.0317598     83.4712     0.16895   0.0909093    0.171827  0.00081768     7.86693    0.516038   0.0407806    0.201639   0.0337523     1.96294     1.21856  0.00305306    0.183339    0.102543    0.508793     2.69237  0.00975359     0.14818      0.1586   0.0958017     6.79267   0.0824947   0.0954468    0.216497 3.66291e-05     31.1293    0.230104   0.0368697    0.223837   0.0538746     251.154    0.479028  0.00848862    0.211702    0.127547     4.81717    0.841173  0.00359724    0.169845    0.217119    0.474936     1.36919   0.0379231    0.110317    0.252355  0.00616845     2.14891
    105.265    0.318781     12.9087     4.95579     2.17437     67.5722     23.6687     10.6241      7.8788    0.180009     41.5197     237.736     6.46129     9.96204    0.307696     23.8793     12376.9     2.31831     11.0781     2.05525     11.4661     1535.19 6.73255e-05     10.4364     4.66134     3.91794     335.052     4.26162     8.39598      7.2422    0.514463     134.576     26.0485     5.18715     9.15639    0.183754     60.5547     97.2505     2.00682     10.0231     1.90827     25.4699     388.132   0.0688976      9.2865     4.63868     8.48207     4110.47     1.35551     7.41316     7.39863     1.38362     4114.68     8.45497     4.68293     9.37322   0.0759623     388.173     25.5793     1.97614     10.0021     1.96289     97.6322     60.4083    0.178235     9.21412     5.20128     26.0174      134.46    0.498699     7.30466     8.36132     4.27486     334.929     3.89371     4.69318     10.3851 0.000561458     1535.97     11.2991     1.97389     11.0597       2.223     12435.1     23.6782    0.296415     9.96445     6.40189      238.12     41.8888    0.183947     7.91441     10.5878     23.4531     67.6242     2.20357     4.99287     12.8007     0.30759     105.576
    65.0505    0.161413     7.98821     3.04994     1.36311     41.7566     14.6189     6.55937     4.78198    0.126394     25.8719      146.97     4.06509     6.14639    0.183068     14.5632     7650.75     1.38306     6.82245     1.31355     7.06941     946.757 7.84662e-05     6.40639     2.85877     2.47032     206.637      2.6462     5.13351     4.53578    0.323848     83.0465     15.9113     3.21451     5.69981    0.105471     37.5981     60.5166     1.24732     6.25326     1.18562     15.7624     239.549   0.0452972     5.73237     2.87112     5.22066     2538.64    0.827214     4.58579     4.54271    0.849871     2542.25     5.20397     2.89571     5.71296   0.0423046     239.749      15.719     1.19492     6.18349     1.21854     60.4083     37.2331    0.116349     5.67341      3.1874     16.0418     83.0553    0.309079      4.4919     5.10221     2.67462     206.917     2.45089     2.90755     6.41324 4.32055e-05     948.147      6.9564     1.25766     6.90692      1.4125     7683.01     14.7221    0.185925     6.14037     3.93828     147.405      25.781    0.107879     4.76022     6.43479     14.6928     41.6064      1.3126     3.07981     7.83611     0.19065      64.906
   0.174085  0.00229787   0.0324484   0.0160328   0.0111273    0.126433   0.0442195   0.0280651    0.016449   0.0032262   0.0740779    0.434083   0.0132895    0.012683 0.000113383    0.040275     23.7434   0.0111113   0.0305445  0.00409128   0.0246747     2.99075 0.000293459   0.0221584   0.0120049    0.013876     0.61036  0.00633927  0.00858069   0.0121229 0.000956485    0.249544   0.0552271   0.0104781   0.0183185 0.000647307    0.106262    0.191496  0.00476166   0.0201642  0.00192929   0.0510159    0.743919  0.00023328   0.0165121  0.00957989   0.0185638     7.83373  0.00231222   0.0133693   0.0150531  0.00281716     7.89171   0.0162906   0.0101035   0.0199486 0.000133734    0.716573   0.0475149  0.00407321    0.018392  0.00305343    0.178237    0.116348 0.000201282   0.0182348  0.00981247   0.0453686    0.250577 0.000783066    0.016433   0.0134273   0.0120981    0.629143   0.0135009   0.0125618   0.0212563 0.000438669     2.95481   0.0166863  0.00495628    0.024861  0.00318187     23.1343    0.037503  0.00112706   0.0186009  0.00897769    0.461917   0.0822048  0.00118115   0.0306087   0.0219193   0.0501508    0.133318   0.0123612   0.0145196   0.0177259 0.000925363    0.169679
    10.0391   0.0296098     1.25176    0.497075    0.215216     6.39433     2.22114     1.02628     0.78033   0.0185077     4.01344     22.5025    0.609117    0.924728   0.0318064     2.19132     1167.31    0.230943     1.03266    0.197377      1.0762     144.603 0.000951491     1.00277    0.458027    0.366057     31.5164    0.398554    0.776776    0.670383   0.0481297     12.8317     2.42635    0.488741    0.855511   0.0155446     5.69148     9.21282    0.191806    0.971421    0.178182     2.42233     36.6611  0.00750017    0.869368    0.452341     0.80699     388.183    0.121579    0.696246    0.696911    0.127577     388.642     0.79906    0.459135    0.887142  0.00707693     36.5103     2.38482    0.181133    0.933925    0.183337     9.21421     5.67339   0.0182348     0.88372    0.500703     2.44343     12.7544   0.0462921    0.697394     0.78662    0.410995     31.4621    0.383813    0.454715    0.980601 0.000879242     145.252     1.04677    0.184736     1.04965    0.229759     1173.33     2.23329   0.0298691    0.924335    0.629311     22.5498     4.03352   0.0279495    0.714529     1.01808     2.24407     6.32434    0.215403    0.515602     1.25629   0.0308468     10.0238
    5.65998  0.00948067    0.686896    0.291599    0.116315      3.5725     1.21245    0.557523    0.395528    0.010971     2.26991     12.6762    0.343799    0.529617   0.0147304     1.24511      657.62    0.124648    0.582225    0.104361    0.600731     81.3899 0.000286248    0.548916    0.241451    0.216158     17.7388    0.237813    0.443427    0.388228   0.0250889     7.13374     1.38577    0.290137    0.487375   0.0099182     3.19025     5.18653    0.109228    0.545854    0.104069     1.35028     20.5773  0.00418694    0.490348    0.248714    0.442784     218.297   0.0734269    0.396163    0.393153   0.0734346     218.085     0.43974    0.246333    0.479227  0.00309331     20.6363     1.34898    0.099356    0.542165    0.102544     5.20122     3.18739   0.0098122    0.500702    0.262367     1.38121      7.1449   0.0281346    0.379664    0.442801    0.233989      17.807    0.220213    0.251329    0.545596 8.64077e-05     81.4036    0.607831    0.107545    0.577358    0.119365      659.93     1.24275   0.0173106    0.523931    0.356836     12.6439     2.21727  0.00757404    0.404959    0.560385     1.25732     3.59041    0.112658    0.269844     0.66774   0.0199501     5.69412
    28.0427   0.0802334     3.30798     1.28638    0.593589     17.9553     6.38223     2.80031      2.0544   0.0476534     11.2323     63.0926      1.7054     2.61613   0.0834218     6.31217     3282.42     0.59749     2.88231    0.552255     3.02248     407.265 0.000157684     2.79816     1.20109     1.05936      89.253     1.16847     2.23909     1.96561    0.129165     35.6948     6.71865     1.37439     2.46935   0.0493503     15.9605      26.014    0.528966     2.68294    0.506739     6.75627     102.669   0.0223523     2.45827     1.23325     2.24493     1090.86    0.356902     1.94505     1.96582    0.372681     1092.63     2.21376     1.24795     2.47694   0.0197957     102.826     6.78841    0.471513       2.647    0.508802     26.0174     16.0417    0.045369     2.44344     1.38122     6.80654     35.6194    0.130116     1.93443     2.24023     1.15827     88.8184     1.12289     1.26193     2.75621 0.000163039     407.296     2.99661    0.521657     2.87751    0.596124     3297.54     6.31025   0.0827264     2.60274     1.68165     63.5379     11.0535   0.0620616     2.05313     2.72039     6.30534     17.8321    0.589805      1.3403     3.29697   0.0811536     28.0635
    144.306    0.367818      17.713      6.8213      3.0203     93.3783     32.4456     14.6395      10.677    0.271834     57.9118     327.846     8.96097     13.7748    0.448638     32.8129     17029.6     3.11332     15.1113     2.78779     15.6665     2109.52 0.000338865     14.3369     6.35652     5.46913     461.973     6.02039     11.4912     10.0648    0.710726     184.702     35.5052     7.17348     12.7087    0.255931      82.998     134.586     2.75476     13.7523     2.67555     34.9884     533.775   0.0977957     12.7988     6.42067     11.6461     5657.63     1.90238     10.1778     10.1481      1.8769     5656.28     11.7039     6.39087     12.8076   0.0979662     533.431     35.0819     2.66912     13.8019     2.69238      134.46     83.0549     0.25058     12.7544     7.14489     35.6192     184.656    0.672567     10.0456     11.4557     6.01349     462.593     5.43495     6.55795     14.2081 0.000207334     2113.56      15.758     2.87054     15.2072     3.10037     17115.3     32.8148    0.441185     13.8682     9.13103     328.734     58.1032    0.253234     10.7524      14.717     32.3263     93.5982     2.99567     6.77719     17.5357    0.423465     144.381
   0.553712  0.00215115   0.0609003   0.0248521   0.0162872     0.35405    0.107487   0.0490964   0.0431867  0.00141753    0.216641     1.26113   0.0278024   0.0514043  0.00296553     0.11959     62.6762  0.00841794   0.0544517   0.0116364   0.0647858     7.81754 8.46921e-05   0.0458198   0.0178647   0.0182611     1.66741   0.0195569    0.040797   0.0378185  0.00183172    0.677848    0.127048   0.0267286   0.0499375 0.000539259    0.296479    0.504685   0.0108982   0.0522514   0.0102654    0.127411     1.97467 0.000832369   0.0491064     0.02621   0.0413133     20.8554  0.00867407   0.0372982   0.0373603  0.00594554     20.8722    0.041155   0.0225431   0.0492591 0.000455506     1.94266    0.130114   0.0128349   0.0483837  0.00975395    0.498696    0.309087 0.000782986   0.0462929   0.0281348    0.130114    0.672569  0.00138069   0.0321027   0.0407446   0.0234492      1.6649   0.0213751   0.0300911   0.0526521  0.00032547      7.7784   0.0599119   0.0121448   0.0493425   0.0133966     63.0103    0.107734  0.00107058    0.055735    0.034926     1.25002    0.223757 0.000816263   0.0356839   0.0522344    0.118109    0.345306   0.0136858   0.0231531   0.0696239  0.00191048    0.540845
    7.96508   0.0155364    0.978352    0.331391    0.151792      5.0384     1.79107    0.819657    0.539964   0.0108122     3.23814     18.0624    0.498533    0.757686   0.0211588     1.72992     924.317     0.17671    0.804154     0.13715    0.854554     113.929 0.000879472    0.773178    0.360922    0.297962     25.0275    0.316034    0.588938    0.547888   0.0369977     10.0003     1.90245    0.394861     0.68695   0.0109456     4.53827     7.23073    0.142502    0.732183    0.132706     1.91944     28.8996  0.00562206    0.705109    0.354014    0.625865     307.133    0.100008    0.555187    0.551222    0.104112     307.287    0.634107     0.35155    0.700576  0.00560687     29.0299     1.90853     0.14129    0.738433    0.148179      7.3046      4.4919   0.0164329    0.697397    0.379662     1.93443     10.0456   0.0321035    0.572421    0.615197    0.321408     24.9869    0.279495    0.341178    0.786882  0.00047558     115.273    0.852669    0.158802     0.82868    0.178533     928.291     1.69184   0.0195786    0.725986    0.488075     17.9224     3.19891   0.0131513    0.595299    0.828422     1.83023     5.05416    0.149861    0.326201     0.96036   0.0231428     7.91043
    8.89622    0.028723     1.07645     0.42364    0.191311     5.79406     2.02883    0.945853    0.650541   0.0198112     3.57716     20.2024    0.574487    0.842423   0.0223658     2.03064     1051.55    0.212163    0.908897    0.169661    0.967677     130.958 0.000171756    0.901929    0.365437    0.347531     28.6324    0.352982    0.745683     0.61256   0.0392687     11.4685     2.18243    0.427595    0.769594   0.0135357      5.1388      8.2737    0.176141    0.839143    0.158653     2.16242     32.8434  0.00772639    0.807904    0.390263    0.721029     349.266    0.119075    0.630413    0.628411     0.11756     349.512    0.720047    0.404323    0.797088  0.00752694     32.9668     2.15193     0.16337    0.841801    0.158603     8.36132     5.10222   0.0134271    0.786621      0.4428     2.24022     11.4557   0.0407452    0.615198    0.681655    0.371917     28.3926    0.340058    0.410792    0.924012 0.000221477     130.692    0.940051    0.176921    0.944165    0.185829      1055.3     2.02264   0.0237786     0.81146    0.548921     20.2573     3.55876   0.0137685    0.692448    0.902046     2.09278      5.7133    0.183587    0.412392     1.09763   0.0285484     8.82386
    4.65397   0.0167459    0.587793    0.207193   0.0956615     2.96203      1.0226    0.490616     0.36489   0.0062245     1.78135     10.5436    0.279419    0.439617   0.0135438     1.06246     547.932     0.11454    0.485305   0.0816022    0.494098     67.9646 0.000425384    0.452502    0.205516    0.180505     14.7299    0.180322    0.347891    0.341244   0.0204843     5.92117     1.16441    0.233285    0.425852   0.0074315     2.62953     4.31249   0.0908975    0.449231   0.0966316     1.12203     17.2923  0.00254753    0.426127     0.21221     0.37056     181.713   0.0629037    0.331753     0.32222   0.0549911     181.715    0.368277    0.211457     0.41749  0.00260842     17.2975     1.09983   0.0835414    0.438397   0.0958011     4.27483     2.67461   0.0120991    0.410991    0.233992     1.15829     6.01342   0.0234498    0.321405    0.371917    0.161012     14.8146    0.172151    0.235973    0.463069 0.000392132     67.8597    0.507254   0.0968218    0.483706   0.0977279     550.611     1.05004  0.00907536    0.437999    0.299095     10.4999     1.83291  0.00635225    0.372768    0.489001    0.963069      2.9768   0.0985229    0.217239    0.574795   0.0185292     4.62749
    362.768     1.01573     44.2691     17.0614     7.62675     232.325     80.4273     36.0715     26.9646    0.651414     143.414     815.951     22.4518     34.6668     1.16852     81.4543       42455     7.70212     37.5667     6.97293     39.2113     5259.31 0.000711267     35.7193     16.2524     13.3822     1142.79     14.5618     28.6104     24.9946     1.75575     462.018     88.5193     17.7156     31.6878    0.616677     207.411     335.012     6.83224     34.4532       6.614     87.5568      1330.3    0.252694     32.1845     16.0853     29.0046     14101.3     4.65871     25.4376      25.342     4.67223       14112     29.0494     15.9681     32.0688    0.238085     1330.88     87.4063     7.01081     34.4873     6.79268     334.928     206.917    0.629129      31.462     17.8071      88.819     462.591      1.6649     24.9868     28.3926     14.8148     1148.62     13.6382     15.5794     35.5513 9.95664e-05     5265.59     39.1197       7.149     37.8278     7.72847     42661.6     81.1846     1.05677     34.6128     22.3502     818.762     143.074    0.644948     26.5774     36.4122     81.2746     232.255     7.58137     16.9529     44.3194     1.05374     362.125
    4.28906   0.0147922    0.520271    0.185288   0.0853595     2.75555    0.900133    0.398063    0.311887  0.00788773     1.71803     9.76103    0.270751    0.438586   0.0119308     1.02374     500.242   0.0794282    0.423027    0.083014    0.469376     62.7199 0.000155552    0.403072    0.192577    0.163286     13.5322    0.176766     0.32979    0.304529   0.0160103     5.42527     1.03042    0.223441    0.389606   0.0124261     2.40568     4.02692   0.0705821    0.393104   0.0874588     1.03127     15.6978  0.00234466    0.366005    0.196589    0.324221     166.722   0.0576092    0.302657    0.296941   0.0535609     166.039     0.31974    0.177831    0.391398  0.00286991     15.7334     1.08517   0.0845658    0.442203   0.0824956     3.89371     2.45089   0.0134997    0.383808    0.220212     1.12289     5.43493   0.0213751    0.279499    0.340056    0.172148     13.6382    0.187349    0.202445    0.414174 0.000635332     61.8952    0.479014   0.0655556    0.447889   0.0869861       504.2    0.958059   0.0129338    0.428589    0.277605     10.0387     1.65987  0.00301929    0.312345    0.446317    0.911422     2.76144   0.0776087    0.195204    0.497612   0.0137359     4.25072
    5.09853   0.0143965    0.581708    0.237326    0.101244     3.22965     1.06504    0.475307    0.376592   0.0110793      2.0254     11.5615    0.317803    0.463036     0.01762     1.13935     592.129    0.108462    0.524779   0.0921912    0.582773     73.7459  0.00122137     0.50065    0.226761    0.197361      15.494    0.211868    0.389018    0.355852   0.0263107     6.46832     1.23657     0.25192    0.458086  0.00536474     2.91942     4.67358   0.0986319    0.480897   0.0959281      1.1878     18.6215  0.00388906    0.444452    0.224002    0.410879     196.953   0.0709978    0.354049    0.357892   0.0732778      196.95    0.412357     0.22862    0.454056   0.0047268     18.5759     1.24624   0.0913418    0.466801    0.095447     4.69317     2.90755   0.0125619    0.454714    0.251326     1.26193     6.55792   0.0300899    0.341178    0.410791    0.235971     15.5794    0.202446    0.317049    0.505067  0.00274549     73.7377    0.522516   0.0944409    0.505181    0.107538     595.852     1.10195   0.0123565    0.473248    0.310144     11.5786     1.95992   0.0105858    0.380612    0.548832     1.19257     3.09884    0.100819    0.259889    0.606185   0.0188803     5.02402
    11.1066   0.0407329     1.41603    0.556036    0.216911      7.2382     2.52406      1.1697    0.836436   0.0182748     4.36692     25.1881     0.71464     1.01412   0.0306872      2.6127     1317.19     0.26477     1.21183     0.22043     1.21377     164.212 0.000115671     1.13155    0.464238    0.457472     35.7732    0.447028    0.866375    0.779342   0.0549535     14.2249     2.77316    0.531974    0.977941   0.0269114     6.40255     10.4245    0.214024     1.04828     0.21008     2.72477     41.1749  0.00787723    0.989832     0.48688    0.912829     436.905     0.14387    0.790292    0.776869    0.144055     436.726     0.90237    0.487321     1.01264  0.00762596     41.2526     2.71136    0.215056     1.06415    0.216497      10.385     6.41325   0.0212561      0.9806    0.545601     2.75623      14.208   0.0526502     0.78689     0.92401    0.463069     35.5513    0.414178    0.505061      1.1091 0.000409506     163.789     1.24675    0.202436     1.17183    0.222288     1322.25     2.50262   0.0325399     1.05127    0.693669     25.3961     4.56746   0.0191149    0.894795     1.14115     2.47409     7.24216    0.245154    0.574494     1.39594   0.0275035      11.139
 0.00332111 4.06416e-05   0.0019387 0.000916982 0.000398982 0.000844316  0.00296964 0.000711815 0.000675486 0.000399286 0.000823501 0.000227834 0.000127594 2.95263e-05  0.00248835  0.00035442  0.00187014 0.000595921 0.000274261 0.000692542 0.000427002 0.000158004  0.00184858 2.75248e-05   0.0184748  0.00177058  0.00103137 0.000261126 0.000345449 8.34496e-05 0.000365476 0.000551465 0.000821861 0.000388086 9.51647e-05  0.00155315 0.000139077 0.000316729 0.000297227 0.000221693 1.43278e-05 0.000460183 0.000314291 0.000149464 7.75643e-06 1.38176e-05 1.66873e-05 0.000727899 8.55941e-05 1.98813e-05 1.21425e-05 4.74751e-05  0.00119462 0.000230699 3.35526e-05  0.00023685 6.83038e-05 0.000109129 2.39615e-05 0.000143406  0.00015783 3.66243e-05 0.000562871 4.32134e-05 0.000438526 0.000878957 8.65189e-05 0.000162854 0.000207167  0.00032562 0.000475599 0.000221394 0.000392178 9.95132e-05 0.000635332    0.002745 0.000409475  0.00160011 0.000115554  0.00306264 0.000299793  0.00091141 0.000997591  0.00175707  0.00129591  0.00204768  0.00102737 0.000910836  0.00183311  0.00181286 4.08699e-05 0.000611864 0.000624333  0.00944002  0.00101774 0.000768659 0.000476186  0.00165569  0.00106623  0.00136133
    1652.73      4.4287     203.371     76.8784     34.1831     1060.65     370.966     166.834     123.535     2.87485     655.316     3744.29       102.5     156.982     4.98581     374.584      194456      35.837     172.439     31.8958     178.906     24098.1  0.00380396     163.561     73.2817     62.4836     5265.94      67.716     130.378      115.04     7.91433     2113.14     404.953      81.687     145.046     2.85129     948.352      1533.1     31.4409     156.804     30.2674     400.905     6092.66     1.14618     146.816     73.4267     133.353     64583.5     21.2764     116.259     116.167     21.5415     64626.8     132.869     72.9732     147.243      1.0921     6097.14     400.328     30.8085     157.281      31.129     1535.97      948.15     2.95482     145.251     81.4032     407.296     2113.57      7.7785     115.273     130.692     67.8604     5265.56     61.8953     73.7383     163.789  0.00011484     24124.6     178.938     32.1714     173.104     35.2587      195386     371.758     4.92636     156.333     102.865     3755.61     658.049     2.75591     123.644     165.962     369.957     1059.69     34.2954     76.9045     202.105     4.59167     1652.78
    12.2749   0.0385173     1.47285    0.559329    0.251192     7.77128     2.85748     1.23403    0.905597   0.0246965     4.68672     27.5725    0.754919     1.13965   0.0385403     2.78957      1437.5    0.268959     1.26377    0.242163      1.2734     178.758  0.00660023     1.26358    0.603515      0.4577      38.844    0.477331    0.959178    0.846488   0.0609256     15.6705     2.99142    0.574259     1.08919   0.0234014     7.07369     11.2557    0.223713      1.1665    0.228037     2.97089       45.07  0.00792325     1.09172    0.543884    0.997874      477.52    0.152998     0.86744    0.862462     0.15918     477.377     0.99536    0.535433     1.08473  0.00705704     45.1495     2.94938    0.222657     1.16625    0.230104      11.299     6.95644   0.0166849     1.04676    0.607834     2.99661     15.7579   0.0599105    0.852672    0.940053    0.507257     39.1197    0.479021    0.522515     1.24675  0.00306253     178.938     1.10247    0.244897       1.313    0.256963     1441.82     2.70741   0.0386576     1.18187    0.754489     27.8379     4.71861   0.0199227     0.95217     1.22685      2.8052     7.78639    0.235747    0.584174      1.5941   0.0477692     12.2899
    2.21723  0.00139917     0.27205    0.116726   0.0459665     1.39245    0.480558     0.21866    0.146237  0.00314808    0.953078     5.05851    0.134075    0.221052   0.0072771    0.469249     261.478   0.0510555    0.239817   0.0409113    0.211936     32.0701 0.000519959    0.209032     0.10743   0.0811826     7.03923   0.0908667    0.181927    0.159855  0.00889978     2.80293    0.555246    0.100873    0.196595  0.00167602     1.29239     2.02309   0.0378247    0.217547   0.0416628    0.551545     8.10249   0.0023376    0.200453   0.0978789    0.179447     86.5678   0.0327015    0.155718     0.15684   0.0316683     86.6255     0.18051   0.0903322    0.193351  0.00129465     8.29859    0.536427   0.0406742    0.206514   0.0368702     1.97389     1.25765  0.00495626    0.184734    0.107545    0.521657     2.87055   0.0121451    0.158801    0.176922   0.0968237      7.1489   0.0655578   0.0944409    0.202437 0.000299697     32.1713    0.244897   0.0598756    0.229155   0.0516053     262.873    0.527024  0.00480724    0.199251    0.143886     5.01832    0.973663  0.00482828    0.159352    0.242481    0.517528     1.39068   0.0522693    0.120344    0.264524  0.00288031     2.22471
    11.8077   0.0367872      1.4595     0.51506    0.238001     7.70269     2.70906     1.25595    0.913623   0.0170935     4.53469     26.8356    0.749221     1.13078   0.0367676     2.70658      1399.7    0.249781     1.15772    0.227939     1.23045     173.195 9.22138e-06     1.24119    0.552329    0.437535     38.1112    0.496899    0.965216    0.829853   0.0697694     15.2744     2.94516      0.5766     1.10238   0.0187785     6.91637     10.9308    0.232379     1.09136    0.220424     2.84677     43.9579  0.00927838     1.04092    0.516105    0.946512       464.9    0.156811    0.835701    0.828335    0.154596     465.235    0.962522    0.525992     1.03016  0.00769329     43.8332     2.86569    0.202703     1.10777    0.223841     11.0597     6.90695   0.0248619     1.04965    0.577357     2.87749     15.2074   0.0493433    0.828684    0.944163    0.483711     37.8276    0.447894    0.505184     1.17182 0.000911437     173.104     1.31302    0.229154     1.02045    0.214136     1407.59     2.78464   0.0340295     1.15483    0.701948     26.7766     4.73666    0.025439    0.901899     1.19967     2.62377     7.72466    0.262773    0.554948     1.36661   0.0332249     11.8621
    2.36246   0.0101106    0.274491     0.11179   0.0324826     1.58035    0.522682    0.238863    0.170271  0.00599524    0.936696     5.39665    0.152847    0.249623  0.00526426    0.532644     285.803   0.0534054       0.246   0.0369851    0.244217     35.4899 0.000418791    0.248187   0.0977587    0.101275     7.75097   0.0987323    0.185995     0.21574  0.00961619     3.09807     0.59005    0.126289    0.209168  0.00396283     1.38512     2.27796    0.040095    0.240146   0.0441823    0.603881     8.86424  0.00160919    0.223885    0.108958    0.198527      95.076    0.032411     0.17268    0.169251   0.0368646     95.0989    0.205549    0.105152    0.222993  0.00177196     8.94073    0.604779   0.0573104     0.24392   0.0538747     2.22302     1.41249   0.0031819    0.229765    0.119366    0.596119     3.10032   0.0133955    0.178532    0.185827   0.0977291     7.72845   0.0869843    0.107537    0.222293  0.00099773     35.2585     0.25696   0.0516042    0.214137   0.0714523     286.374    0.499962  0.00607816     0.21195    0.163257     5.58461    0.946547  0.00402423    0.189826    0.225474    0.496209     1.63427   0.0310365     0.12506    0.306253  0.00586274     2.37243
    13395.4     35.2139     1633.91     628.577     278.419     8596.68     3002.04     1350.87     995.647     23.5229     5331.04     30319.8      830.16      1276.1     40.0674     3020.76 1.57514e+06     291.414     1402.51     261.001     1451.13      195182   0.0115854     1323.48      593.04     503.855     42657.1     549.197     1057.98     927.196     64.0172     17130.7     3290.53     661.577     1174.05     22.8625        7693     12413.8     253.471      1272.3     245.223     3247.44     49339.3     9.14062     1188.38     592.822     1079.43      523103     172.704      944.38     940.035     174.394      523464     1076.36     594.768     1187.01     8.83047     49391.8     3238.84      247.95     1272.04     251.157     12435.1     7682.96     23.1347     1173.32     659.927     3297.59     17115.3     63.0098     928.291     1055.31     550.607     42661.7     504.199     595.846     1322.25   0.0017698      195386     1441.84     262.874     1407.59      286.38 1.58309e+06     3015.57     40.2069     1270.54     828.906       30402     5322.04     23.6444     995.191     1342.73     2999.55     8598.01      278.73     627.997     1628.68     38.4926     13395.7
    25.6072   0.0528116     3.13417     1.13189    0.509272     16.3312     5.61882     2.47667     1.85217   0.0390952     10.2153     58.1278     1.57617     2.42457   0.0690643       5.873     3003.47    0.548858     2.64612    0.469103     2.77275     370.374  0.00035689     2.60546      1.1149    0.952231      80.797     1.10989     2.06961     1.69074    0.128458     32.7162     6.26513     1.27143     2.26216   0.0701394     14.7525     23.4213    0.443741     2.44522    0.450781     6.16965     94.0034    0.014669     2.29147     1.14007     2.06406     996.976    0.329627     1.78582     1.79099    0.304887     997.102     2.05634       1.139     2.27179   0.0168484     94.1027     6.17811    0.474975     2.47954    0.479033     23.6781     14.7222   0.0375015     2.23328     1.24276     6.31021     32.8148    0.107734     1.69183     2.02264     1.05005      81.184    0.958052     1.10195     2.50261  0.00129576     371.761     2.70743    0.527023     2.78464    0.499959     3015.56     5.99346   0.0831088     2.42829     1.53834     58.0675     10.2574   0.0362154     1.91856     2.48507     5.74861     16.3263    0.518551      1.1624     3.01659   0.0678077     25.2914
   0.316081  0.00113304   0.0383738   0.0197481  0.00942438    0.272065   0.0757616   0.0209057   0.0238812 0.000608286    0.132672     0.76745   0.0211557   0.0265948  0.00208876    0.075103     39.9453   0.0099372   0.0297547  0.00672806    0.040816     5.06523 0.000251213   0.0433455    0.014556   0.0113337     1.03615   0.0128018   0.0235008   0.0207851  0.00165406    0.427879   0.0892138   0.0174641   0.0251558 0.000928261    0.201185    0.313854  0.00821461   0.0345197  0.00581936    0.084547     1.28606 0.000211954   0.0328529   0.0151448   0.0274827     13.2615  0.00345668   0.0240917   0.0236829  0.00415672     13.2181   0.0329647   0.0123901   0.0277114 0.000656926     1.25528   0.0835728  0.00627176   0.0348037  0.00848874    0.296406    0.185925  0.00112713   0.0298692   0.0173105    0.082724    0.441177  0.00107064   0.0195787    0.023779  0.00907512     1.05677   0.0129332   0.0123566   0.0325403  0.00204797     4.92629    0.038658  0.00480718   0.0340293  0.00607817     40.2064   0.0831089  0.00575213   0.0297517   0.0170205    0.802505     0.12834  0.00237451   0.0244372    0.029453    0.098781    0.202324  0.00849214   0.0236448   0.0409661 0.000300525    0.332888
    10.6881   0.0271405     1.24605    0.502849    0.249629     6.89323     2.36997      1.0354    0.839136   0.0155817     4.38772     24.6037    0.659686     1.19216   0.0285514     2.49818     1261.48    0.218333     1.11844    0.226294     1.13674     156.358 1.08293e-05     1.02611    0.458712    0.429071     34.2647    0.436158    0.931986    0.727418   0.0501291     13.7412     2.58822    0.509726    0.923077   0.0206063     6.23569     9.87617    0.198103    0.992244    0.193568     2.61276     39.5315  0.00620773    0.949762    0.467737    0.840359     419.461    0.154675    0.759712    0.751447    0.154649     419.926    0.860441    0.469669     0.97098  0.00706389     39.5535     2.63574    0.157828     1.01675    0.211701     9.96431     6.14036   0.0186012    0.924327    0.523928     2.60272     13.8682   0.0557351    0.725987    0.811457    0.437986      34.613    0.428593    0.473247     1.05127  0.00102706     156.334     1.18188    0.199251     1.15482    0.211949     1270.54     2.42831   0.0297514     1.20274    0.648495     24.3555     4.35379   0.0130538    0.797854     1.10599     2.33291     7.09696    0.218541    0.489294     1.25432   0.0298883     10.7006
    6.95453    0.013163    0.838648    0.311694    0.140697      4.4325     1.57615    0.750417    0.508743  0.00957179     2.92876     15.7887    0.424509    0.706651   0.0201718     1.53804     826.405    0.167399    0.744152    0.127235    0.772916     102.195 3.85636e-06     0.68755      0.2959    0.262408     22.3615    0.263695    0.561986    0.517489   0.0236615     8.87191     1.70328    0.327847    0.618572   0.0116341     4.02077     6.42611     0.14368    0.651974    0.130636     1.68247      25.867  0.00589118     0.63088    0.295483    0.558432     274.335    0.095454    0.491003    0.495266   0.0885543     273.974    0.568991    0.331931    0.643012  0.00514014     26.0612     1.69255    0.113696    0.646853    0.127546     6.40197     3.93826  0.00897786    0.629315    0.356836     1.68167     9.13096    0.034925    0.488066    0.548923    0.299094     22.3503    0.277607    0.310142    0.693667 0.000910832     102.864    0.754484     0.14389    0.701949    0.163252     828.912     1.53832   0.0170203    0.648495    0.402108     15.9862     2.73945    0.010826    0.528602     0.69356       1.577     4.38821    0.142809    0.319308    0.934588   0.0237718     7.08892
    256.286    0.694672     31.3248     11.9597     5.33343     165.598     58.3729     25.6809     19.2795    0.452912     102.328     583.202     15.9908     24.4554    0.732395     57.7979     30257.5     5.43373       26.57     5.05259     27.5587     3750.29 0.000256158     25.6624      11.336     9.85585     818.958     10.6195     20.3704     17.8928     1.19376     328.743     62.3513      12.663      22.466    0.421913     147.465     237.997     4.81557     24.5204     4.89088     62.5518     947.588    0.167206     22.7852     11.4297     20.7104     10050.6     3.29442     17.9695     18.2523     3.38671     10056.9      20.376     11.5094     22.6079    0.161286     949.629     62.7137     4.76095     24.5513     4.81717     238.119     147.405    0.461907     22.5499      12.644     63.5384     328.735     1.24999     17.9223     20.2572     10.5001     818.756     10.0386     11.5785     25.3961  0.00183255     3755.58      27.838     5.01836      26.777     5.58459     30402.1     58.0675      0.8025     24.3556     15.9862     584.303     102.498    0.415617     19.2925     25.8619     58.5344     165.244     5.24075     11.8866     31.2026    0.741731     256.753
     45.599    0.101801      5.3698     2.10684    0.955705     28.8123     10.0681     4.44235     3.50651   0.0617605     18.1089     102.439     2.80768     4.53987    0.134863     10.1919     5295.19    0.950988     4.81204     0.82062     4.95713      653.94 0.000431508     4.40723     2.00759     1.64378     143.565     1.83824     3.53569     3.06929    0.226573     57.9837     11.2637     2.23661     4.01169   0.0759926     25.9069     41.6294    0.802278     4.24172    0.834442     10.8312     165.733   0.0351038     3.99514      2.0284     3.61675      1760.2    0.594973     3.15664     3.19088    0.604187     1763.22     3.65113     2.02913     3.96443   0.0327768     166.268     10.9563    0.824621     4.26237    0.841168     41.8887     25.7811    0.082204     4.03353     2.21725     11.0535     58.1029    0.223757     3.19889     3.55874     1.83293     143.075     1.65989     1.95992      4.5674  0.00181222     658.048     4.71859    0.973664     4.73664    0.946561     5322.02     10.2573    0.128339     4.35376     2.73946     102.497     17.3188   0.0772467     3.35234     4.65871     10.1576      28.868    0.935787     2.16993     5.48698    0.132881     45.0596
   0.200724 0.000563905   0.0205627  0.00585538  0.00354279    0.117775   0.0461988   0.0194077   0.0167142 0.000527712   0.0660898    0.424401  0.00749341   0.0189568  0.00107657   0.0407032     23.6151  0.00335614   0.0189872  0.00294921   0.0276171     2.78543  0.00017012   0.0180719  0.00644829   0.0116668    0.613954  0.00886439   0.0137191   0.0165185 0.000834101    0.250175   0.0501506  0.00829464   0.0192969 0.000655702    0.104972    0.197959  0.00217825   0.0174583  0.00740883   0.0459999    0.742966 4.26256e-05   0.0146696   0.0089899   0.0185825     7.72753  0.00243973   0.0135419   0.0137921  0.00163367     7.77981   0.0128198  0.00966971   0.0161147  0.00010395    0.734985   0.0504474  0.00505558   0.0232639  0.00359693    0.183948    0.107879  0.00118103   0.0279484  0.00757391   0.0620633    0.253229 0.000816193   0.0131517   0.0137683    0.006352    0.644954  0.00301914   0.0105861   0.0191145 4.08628e-05     2.75593   0.0199229  0.00482857   0.0254392  0.00402464     23.6443   0.0362132  0.00237429   0.0130536   0.0108263    0.415614   0.0772505 0.000401248     0.01804   0.0178773   0.0424065     0.11629  0.00531695  0.00559531   0.0232909  0.00148278     0.20667
    8.48425   0.0220421     1.03892    0.429288    0.189897     5.54172     1.84527    0.840434    0.662814   0.0186546     3.45256     19.1253    0.559349    0.805777   0.0224603     1.82474      989.06    0.181693    0.902715    0.174973    0.964213     122.758 0.000325825    0.845734    0.366307    0.307166     26.5202     0.33381    0.607622    0.563441   0.0465476     10.6574     2.07526    0.404655    0.731081   0.0120456     4.89232     7.80962    0.161715    0.806575    0.161304     2.05067     30.8962  0.00667454    0.774998    0.382945    0.689635     329.013    0.110771    0.599005    0.581449    0.115459     329.279    0.682253    0.363798    0.739422  0.00579104     31.0844     2.01413    0.143722     0.78321    0.169844     7.91443     4.76025   0.0306089    0.714529     0.40496     2.05312     10.7524   0.0356853      0.5953    0.692442    0.372763     26.5774    0.312342    0.380615    0.894794 0.000611743     123.645    0.952178    0.159352    0.901894    0.189824     995.195     1.91856   0.0244371    0.797849    0.528595     19.2924      3.3523   0.0180399    0.598479    0.891132     1.85355     5.49186    0.181226     0.41464     1.03528    0.021019     8.45444
    11.1898   0.0311625      1.3496    0.569159    0.250232     7.23379     2.56292     1.16307    0.892636   0.0214536     4.62311     25.8196    0.702956     1.09404   0.0308882     2.56087     1334.87     0.23022     1.24634    0.210526     1.23083     165.878 0.000713313     1.09614    0.493996    0.458886     36.4812    0.467983    0.885535    0.800976   0.0432125     14.5933     2.73839    0.582584     1.02477   0.0187433     6.55625      10.649     0.20877     1.09009    0.217955     2.70072     41.9056   0.0074023     1.00792     0.50209    0.913436     443.913    0.137474    0.800711    0.800779    0.136278     445.211    0.922294    0.507033     1.03628  0.00717066     41.8907     2.76116    0.198027     1.08216    0.217121     10.5878     6.43473   0.0219194     1.01808    0.560387     2.72038     14.7169   0.0522356    0.828413    0.902048    0.489005      36.412    0.446307    0.548832     1.14115 0.000624237     165.961     1.22685    0.242486     1.19968    0.225468     1342.73     2.48507   0.0294544     1.10599     0.69356     25.8617     4.65869   0.0178775    0.891136     1.11752     2.47774     7.36924    0.255606    0.596959      1.2975   0.0332929     11.2553
    25.4182    0.083345      3.0133     1.19205     0.51312     16.3609     6.05378     2.60615     1.91076   0.0321579     10.1026     57.6737     1.53639     2.53803   0.0925912     5.92981     2986.45    0.499538     2.73673    0.439773     2.72201     370.789  0.00033349     2.50381     1.05419    0.927443     81.0163     1.05588     2.04723     1.81633    0.132242     32.3802     6.26821     1.24229     2.19279   0.0541525     14.5783     23.5626    0.444713      2.4322    0.482453      6.1901     93.7163   0.0183289     2.20678     1.13088     2.07279     992.651    0.322155     1.77919     1.78656    0.332978     993.355     2.04323     1.09503     2.23844   0.0224096      93.939     6.18318    0.499191     2.38598    0.474941      23.453     14.6927   0.0501525     2.24407     1.25732      6.3053      32.326    0.118112     1.83023     2.09272    0.963074      81.275    0.911422     1.19259      2.4741  0.00944403     369.957     2.80517    0.517534      2.6238    0.496198     2999.58     5.74858   0.0987828     2.33291       1.577     58.5345     10.1576   0.0424064     1.85354     2.47768     5.65938     16.7395    0.539225     1.23573     3.01457   0.0971779     25.2144
    72.9046    0.177893     8.86076     3.55238     1.58144     45.2781     16.3608     7.39711     5.32671    0.146824     29.1654     164.657     4.50784     7.00346    0.228893     16.6024     8557.59     1.61293     7.47415     1.36311     8.03156     1059.81  0.00238828     7.04853     3.33083     2.78112     232.241     3.01583     5.79646      5.1301    0.296158      93.144     17.8998     3.64133     6.30718    0.131142       41.52     67.4764      1.3801     6.88156     1.34621     17.6945     267.968   0.0460272     6.58147      3.2158      5.8821     2842.55    0.945512     5.08786     5.11265    0.945746     2844.82     5.83882     3.29602     6.49463    0.050208     268.645     17.4893     1.35069      6.9653     1.36918     67.6243     41.6064    0.133317     6.32434     3.59039     17.8322     93.5977     0.34531     5.05414     5.71334     2.97678     232.256     2.76142     3.09883     7.24213  0.00101693     1059.69     7.78639     1.39068     7.72465      1.6343     8598.04     16.3263    0.202323     7.09694     4.38822     165.245      28.868    0.116293     5.49186     7.36925     16.7395     46.4139     1.47739     3.47834      8.9695    0.202988     73.5307
     2.4146  0.00561481    0.311753    0.113964   0.0560307     1.58142    0.513105    0.307088    0.175584   0.0042556    0.958447     5.27973    0.142282    0.222665  0.00981755    0.519583     275.628   0.0386097    0.241902   0.0428276    0.270712     34.3989   0.0021631    0.243802   0.0968074   0.0855374     7.55219   0.0920752    0.167043     0.16073   0.0156682     3.02772    0.544744    0.109263    0.195339  0.00388491     1.40188     2.14778   0.0451629    0.214429   0.0451432    0.557127     8.69187  0.00255682    0.199895    0.101145    0.176151     91.8059   0.0319658    0.161959    0.166427   0.0286928     91.8384    0.178028    0.117013    0.213229   0.0023894     8.67867    0.560048   0.0369348    0.222773   0.0379239      2.2036     1.31259    0.012361    0.215401    0.112658    0.589809     2.99565   0.0136865    0.149861    0.183589   0.0985207     7.58136   0.0776083    0.100819    0.245155 0.000768397     34.2955    0.235747   0.0522715    0.262769   0.0310389     278.729     0.51855  0.00849216    0.218542    0.142809     5.24079     0.93578   0.0053165    0.181227    0.255607    0.539221     1.47741   0.0516911    0.105259    0.308269  0.00922635     2.30601
    5.17763  0.00292211    0.611708    0.515045    0.113964      3.5524     1.19205    0.542149    0.413137  0.00764869     2.12227     12.0209    0.346101    0.477862   0.0231855     1.28521     623.055    0.128259    0.555801    0.108066    0.572459     76.9671 4.44386e-06     0.48947     0.19691    0.187843     17.1553    0.210718    0.418535    0.280293   0.0251653     6.67377     1.35092    0.257183    0.463751   0.0105692     3.05887     4.97652     0.10327    0.520002   0.0964438     1.26224     19.5733   0.0038356    0.456124    0.231538    0.434663      207.18    0.062223     0.37063    0.385235   0.0727477     207.264    0.408679    0.232489    0.468574  0.00397463     19.5125     1.30162   0.0834989    0.526535    0.110317     4.99286     3.07982    0.014519    0.515601    0.269844     1.34029     6.77716   0.0231536    0.326202    0.412392    0.217235     16.9529    0.195204    0.259889    0.574498 0.000476143      76.904    0.584173    0.120344    0.554943    0.125061     627.999      1.1624   0.0236445    0.489292     0.31931     11.8865     2.16992  0.00559554    0.414639    0.596958     1.23575     3.47833     0.10526    0.435564    0.634392   0.0119414     5.24443
    13.6881   0.0306608      1.7302    0.641708    0.315594     8.88788      3.1301     1.39234      1.0606   0.0207475     5.39157     31.2043    0.816857     1.35594   0.0368199     3.17805     1623.73    0.280294     1.36122    0.247303     1.50566     201.918  0.00389769     1.34836     0.58305    0.490485     44.2521    0.581756     1.14968    0.970936   0.0694265     17.4528     3.26835    0.666103     1.21353   0.0338913     7.86628     12.8997    0.254895     1.30128    0.259833     3.37802     50.8322  0.00879073     1.25493     0.60343      1.0937     540.004    0.172713      0.9778     0.97552    0.179274     540.124     1.11786    0.601138     1.25008   0.0112725     51.0561     3.31486    0.211583     1.33626    0.252351     12.8007     7.83607   0.0177243     1.25629     0.66774     3.29695     17.5357   0.0696248    0.960356     1.09762    0.574784     44.3193    0.497613    0.606188     1.39595   0.0016558     202.104     1.59411    0.264529     1.36662    0.306256     1628.69     3.01657   0.0409665     1.25431    0.934588     31.2027     5.48699   0.0232911     1.03528      1.2975     3.01456     8.96951    0.308266    0.634391     1.73163   0.0465077      13.765
   0.312841  0.00110414   0.0349138   0.0185479   0.0133976    0.206062   0.0837549     0.03357    0.020105  0.00144971    0.118898    0.716416   0.0201892   0.0314949 3.43891e-05   0.0696988     38.8843    0.013316   0.0240477   0.0104146   0.0252541     4.99965  0.00233188   0.0341617  0.00664202   0.0146441     1.09963    0.013468   0.0283626   0.0261853  0.00114356    0.429538   0.0839019   0.0179205   0.0288454   0.0013989    0.199366    0.322796  0.00512069   0.0285014  0.00672918   0.0807555     1.19218 0.000423845   0.0337105   0.0130965   0.0266328      12.789  0.00291001   0.0237413   0.0220996  0.00410286     12.8718   0.0295357   0.0150506   0.0318372 0.000213764     1.27783   0.0882847   0.0075773   0.0326842  0.00616745    0.307591    0.190643 0.000925717   0.0308458   0.0199509   0.0811536    0.423488  0.00190991   0.0231421    0.028548   0.0185273     1.05376   0.0137347     0.01888   0.0275014  0.00106654     4.59144   0.0477682  0.00287973   0.0332229   0.0058629     38.4903   0.0678075 0.000300404   0.0298876   0.0237704    0.741686    0.132878  0.00148307   0.0210185   0.0332931   0.0971819    0.202992  0.00922683    0.011941     0.04651 0.000757031    0.299858
    114.654    0.324982     14.2141     5.17767      2.4146     72.9045     25.4182     11.3649      8.6009    0.178078     44.7656     257.214     6.99428     10.7824    0.321795     25.7302     13325.7     2.48052     11.8616     2.17461     12.3701     1652.17  0.00155177     11.3191     4.79341      4.3115     362.761     4.73415     8.89947     7.93022    0.553255     145.505     27.7147       5.823     9.76313    0.213638     65.0815     104.703       2.185     10.6472     2.09898     27.4594     417.757   0.0797799     10.1938     4.95196     9.10385     4427.97     1.45023     7.94103     7.97624     1.44387     4429.79     9.04848     4.89901     10.1291   0.0791278     419.269      27.458     2.08027     10.9375     2.14894     105.576      64.906    0.169677     10.0238     5.69414     28.0638     144.381    0.540835     7.91042     8.82388     4.62751     362.125      4.2507     5.02401     11.1389  0.00136315     1652.78     12.2899     2.22471     11.8622     2.37241     13395.8     25.2915    0.332889     10.7006     7.08885      256.75     45.0597    0.206674     8.45444     11.2553     25.2146     73.5306     2.30601     5.24445      13.765    0.299854     113.628
