wavelength: 632.8 R: 400 r0: 10 LinSpaced num:100 100
  0.0193284    0.037704  0.00818106   0.0323149   0.0220834   0.0122755   0.0177053   0.0226456   0.0772106   0.0154037   0.0297263  0.00877626  0.00353421  0.00427654   0.0121734   0.0147408     0.28022     5.36354    0.257751   0.0708308 0.000298628   0.0242553  0.00417231   0.0109634   0.0257206   0.0170355   0.0127956  0.00053819  0.00769541   0.0187446 0.000311362   0.0102328  0.00356152   0.0176902   0.0287976  0.00285446   0.0152721  0.00358067    0.023701    0.011681  0.00157761  0.00318328  0.00215662 0.000878726   0.0241417   0.0135722  0.00288153  0.00848647   0.0302426    0.476404    0.480865   0.0520611   0.0188815  0.00611588  0.00100566   0.0214986 0.000198642   0.0113694 0.000613694 1.38069e-07 0.000572011  0.00421589   0.0128202   0.0128809 0.000447497  0.00398182  0.00579606   0.0237876  0.00163463    0.012134  0.00983403  0.00224405   0.0138937    0.016657  0.00167133  0.00682646   0.0182827  0.00359126   0.0283307   0.0440819   0.0243974    0.174383     5.48349   0.0730094   0.0429309  0.00577717   0.0274778   0.0238518  0.00387122   0.0319538   0.0134872  0.00359328   0.0341898  0.00739365  0.00356363 0.000486151   0.0344534   0.0332676  0.00683824   0.0600978
  0.0377046   0.0972986   0.0300396   0.0177158 0.000108869    0.145533    0.190331   0.0184941   0.0253839   0.0607417  0.00381635  0.00889004   0.0545415   0.0542428    0.438643     1.28307     5.09351     324.175     8.39662     1.12918    0.356732   0.0588842   0.0341565   0.0560515  0.00192038    0.171325   0.0902902   0.0963733    0.244668   0.0643476   0.0548803   0.0603102  0.00385188  0.00229598  0.00936154   0.0940914   0.0475938    0.101742     0.11593   0.0696416    0.100393   0.0362776   0.0541424   0.0249495   0.0725404   0.0765009    0.197199    0.699661      2.5499     28.9714     29.6449     3.13522    0.744796    0.237875   0.0111579   0.0218704    0.020347   0.0325469    0.146005    0.160895   0.0756733    0.083159    0.033093   0.0869015   0.0267324  0.00437169   0.0801206    0.029788   0.0433053    0.018704   0.0843968   0.0776027   0.0784302    0.144574    0.110943   0.0957072   0.0249565   0.0348463   0.0340252    0.403071     1.26911       7.672     328.771     4.67064    0.929393    0.358155     0.26719   0.0760757   0.0533358   0.0177838   0.0314416    0.137494    0.088177    0.028318    0.207701   0.0656973   0.0245359   0.0485133    0.100614   0.0283026
 0.00818069   0.0300399    0.356291    0.146244    0.425567     0.24862    0.269518    0.464058    0.137801    0.203398   0.0591665   0.0127723    0.101987    0.551397      1.5784     4.91753     19.5942     1206.79     32.2383     4.60916     1.11028    0.103157  0.00407862   0.0819739    0.161459    0.320877    0.261586     0.43409     0.33674    0.332707    0.129837   0.0553586    0.036518   0.0162797   0.0205415    0.123917    0.145253    0.168074    0.271828    0.497381     0.34996    0.268835    0.184902   0.0520345   0.0165069   0.0757534    0.664473     2.39327     10.8081     107.278     107.772     9.87894     2.48414    0.685163    0.136516   0.0040002   0.0688575    0.111146    0.287381    0.441176      0.3139    0.186614    0.266034    0.161128    0.151417   0.0375815  0.00196846   0.0783364    0.112662     0.11084    0.258997    0.328544    0.442929    0.347736    0.435823    0.202844   0.0081191  0.00726776    0.153683    0.817643     4.30522     31.0921     1226.53     27.0275     4.99159     1.69299    0.402972   0.0771513  0.00695133    0.169533    0.460464    0.394048    0.279571    0.261738    0.371474    0.174026    0.202247    0.362453   0.0308808   0.0146281
  0.0323149   0.0177162    0.146244    0.111704     0.44791    0.530931    0.603002    0.651999    0.490715    0.355608    0.161257  0.00442331    0.110815      1.1983     3.67095     10.2079     44.3437     2635.74     69.3912     10.5635     2.09363    0.687917  0.00699139    0.166179    0.439813    0.590291    0.895691    0.774012     0.94169    0.545252    0.376145    0.105847   0.0420351   0.0276716   0.0528245    0.166357     0.37987     0.45211    0.720488    0.843581     0.78962    0.576278    0.356118    0.139374   0.0436931    0.237453      1.4733     5.88838      21.172     230.688     234.552     22.4712     5.89277     1.60527    0.220572  0.00262378    0.109768    0.354222    0.614203    0.632222    0.839671    0.750135    0.493174    0.414627    0.200645  0.00400429   0.0024108   0.0706378    0.186916    0.393891    0.498432    0.689691     1.31321    0.956243    0.714365    0.625518    0.169082  0.00127198    0.407168     1.97254     10.7056     69.1933     2661.01     45.8154     10.7552      3.5047       1.234    0.188177   0.0215348   0.0582409    0.280314    0.307414    0.723256    0.467482    0.515163    0.585878    0.384572    0.117758    0.040347   0.0344536
  0.0220832 0.000108855    0.425565     0.44791    0.340905    0.798063    0.780559     1.14571     1.15137    0.537605    0.196815  0.00409004    0.276886     1.54775     5.66599     16.5631     68.4911     4044.49     105.583     15.3217     3.75339    0.899122   0.0859209    0.282601    0.630649     1.11263     1.05298     1.28419     1.22096    0.821224    0.724424    0.279981   0.0501221  0.00218115    0.107111     0.22264    0.663222    0.830286     1.10377     1.20822     1.23163    0.945863    0.639801    0.246901   0.0104663    0.378363     2.08976     9.27625     34.1841     359.868     365.213     34.1891     8.36088     2.23272    0.428212  0.00431447     0.28367     0.57588    0.856555     1.05949     1.21516    0.929923    0.614824    0.436197    0.208404   0.0768999  0.00117868   0.0938933    0.259288    0.799135    0.909989    0.881165      1.2319     1.18304    0.993515    0.661027    0.181474   0.0138568    0.597189      3.7699     15.1859     105.447     4092.85     69.4502     16.6029      5.0664     1.63489    0.292193   0.0253044    0.363809    0.535176    0.737514    0.959598     1.12745    0.990633    0.938089     0.58588    0.250251   0.0824916 0.000486148
  0.0122761    0.145532    0.248616    0.530936    0.798068     1.34658     1.61411     1.41808    0.813533    0.791696     0.27311  0.00873798    0.331468     2.05436      7.1519     22.9272     87.3367      5526.4     145.055     22.1029       4.266    0.904853   0.0321571    0.314395    0.857626     1.41946      1.5775     1.84855     1.30116     1.34247    0.666628    0.304206    0.137128  0.00652889   0.0519537    0.256284    0.780155     1.05782     1.33052     1.50274     1.46183     1.29021    0.903028    0.294459  0.00121223    0.564606     2.92951     10.7393     45.3252     485.058     487.673     47.0142     11.7567     3.31485    0.636099  0.00175281    0.223591    0.619054     1.19997     1.60342     1.70705     1.41457     1.17182    0.642622    0.373329   0.0604668  0.00345468    0.131232    0.247623    0.773912     1.20472     1.39275     1.78121     1.67466     1.47979    0.888449    0.328158   0.0174261    0.766645     4.36568     20.6248     142.401     5581.13     86.8537     21.9402     7.62115     1.99881    0.306392   0.0103345    0.439773     0.73181     1.52029     1.20104      1.6356     2.01433    0.990627    0.515162    0.317817    0.093713   0.0035635
  0.0177047    0.190328     0.26952       0.603    0.780562     1.61411     1.31277     1.74014     1.68546    0.756599    0.257719 0.000386682     0.38484     2.14216     6.84819     24.4372     101.053     5845.93     154.838     22.6499      4.7259    0.742916   0.0244308    0.268315    0.865568     1.72166     1.77904     2.47142     1.58557     1.53689    0.733013    0.416694    0.160682   0.0181559    0.171423    0.513442    0.806634     1.05859     1.30948     1.66548      1.5038     1.68685    0.791193     0.27291   0.0048521    0.509643     2.93794     12.9767      48.838     512.906      515.67     48.4617      12.141     3.13947     0.52098  0.00286134    0.244906     0.76603     1.17538     1.64853     1.77813     1.52728     1.03784    0.689199     0.54694   0.0605862  0.00249424    0.220855     0.35256    0.948478     1.39572     1.52235     1.73759     1.90533     1.46754     1.05391    0.393343   0.0348286    0.582738     4.40445     23.3648     154.595     5919.44     100.323     24.0725     7.10704      2.4185    0.412691   0.0187812    0.271485    0.799724     1.06326     1.57423   0.0962695     1.63561     1.12745    0.467481    0.264073   0.0483978  0.00739337
  0.0226444   0.0184938    0.464052       0.652     1.14571     1.41808     1.74014     2.32685     1.35409    0.874916    0.277301  0.00866369    0.373973     2.40216     8.07918     22.9875     86.2903     5690.43     148.292     21.0824     3.73609    0.595858   0.0133238    0.252886     0.89448      1.3463     1.69911     1.78161     1.49551     1.77994    0.671212    0.341107    0.132279  0.00166607    0.165627    0.189934    0.646413    0.998161     1.71256     1.74646     1.52735     1.34873     0.59488    0.264992   0.0025505    0.503767     3.12879     12.1869     47.9079     502.172     507.049     46.9432     12.2944     3.25052    0.599806 0.000611178    0.345004    0.749054     1.34706     1.49618       1.533     1.48261     1.03538    0.807048    0.459077    0.069464  0.00336506    0.195106    0.416147    0.926813       1.195     1.48985     2.00408     1.83403     1.76764    0.900729    0.245636  0.00550596    0.883978     4.89515     21.7267     149.572     5778.72     96.5653      21.769     7.26021     2.24514    0.312296   0.0363008    0.241082    0.717961     1.44704    0.742406      1.3467     1.51092     1.03173    0.830886    0.364738   0.0818168   0.0023329
  0.0772104   0.0253842    0.137802    0.490713     1.15137    0.813533     1.68545     1.35408    0.679275    0.482514     0.28218   0.0014894    0.333395     1.56788     6.20034     18.0957     75.3658     4652.59     121.226     17.2287      3.9228    0.113243    0.041809    0.469081    0.898218     1.23647     1.28352     1.42314     1.29249    0.921748    0.609212    0.260545    0.164765  0.00602124   0.0348021     0.33665    0.710893    0.877639     1.37809     1.51839     1.31662     1.02554    0.796303    0.324002  0.00184326    0.406863     2.46035     9.51604     38.9518     409.706     411.053     38.6702     10.0842     2.69689    0.458227  0.00331988     0.21964    0.688881     1.08822     1.18323     1.22374     1.36685    0.991455    0.572027    0.252633     0.32563   0.0109349   0.0909609    0.193367    0.405193    0.954343     1.57109     1.49617     1.32253    0.948692    0.863483    0.349013   0.0423427    0.370172     3.37325     16.6999     118.343     4692.59     78.1579     17.4089     6.71837     1.36084    0.206943    0.030014    0.219448    0.812101     2.07398      1.1036     1.56474     1.12933    0.930815    0.415544    0.594097    0.114025   0.0823935
   0.015404    0.060742    0.203395    0.355608    0.537609    0.791683    0.756597    0.874913    0.482512     1.01993    0.149251   0.0142467     0.16321    0.919947     3.82969     11.7891     57.4782     2841.23     73.7709     10.7637     2.55145    0.365818    0.028952   0.0713714    0.511707    0.851498    0.830935    0.937619    0.888063    0.581419    0.451212    0.183174   0.0828717  0.00068733   0.0229109   0.0934001    0.457923    0.413039    0.822011    0.829165    0.980611    0.467836    0.457837    0.220975  0.00555524    0.283538     1.53333     6.09366     23.2908     249.315     249.196     23.3312     6.21664     1.67576    0.217088   0.0223629    0.123559    0.389229    0.768955    0.722164    0.830991    0.811361    0.594233    0.312013    0.184355    0.042338  0.00116533    0.112126     0.15711    0.637735    0.717814    0.686989    0.974277    0.843596     0.84586    0.513637    0.347837   0.0362645     0.36319     2.74694     10.4289     74.0698     2867.03     41.3256     11.4777     3.56147     1.22782    0.122897   0.0172539     0.17639    0.514297    0.661484    0.971541    0.786591    0.610956    0.765069     0.32188     1.07546   0.0605507   0.0167817
   0.029726  0.00381668   0.0591686    0.161259    0.196815     0.27311    0.257722    0.277301    0.282181    0.149253    0.536058   0.0136533     0.16915    0.312251     1.42442     3.72239     16.6631     984.466     25.5793     3.76201    0.889914    0.278976  0.00695788   0.0554248    0.210368    0.129257      0.4169    0.212597     0.36651    0.192867    0.139979   0.0742831   0.0270596 0.000344278    0.134319    0.125615    0.091933    0.279763    0.324699    0.254935    0.241417    0.202989    0.165185   0.0333504   0.0200466    0.115382    0.624466     1.95941     7.92543     87.9084     88.6457     8.49378     1.96258    0.613979    0.124526  0.00464335   0.0880221    0.211336    0.251915    0.309932    0.259586    0.178619    0.272665    0.109324   0.0814932   0.0569317  0.00414689  0.00106578   0.0855733    0.145596    0.204355    0.340473    0.425543    0.377781    0.317343    0.416557   0.0618863   0.0107423    0.181527    0.744526     3.98513     26.1405     997.073     16.5321     4.02704     1.30624    0.413166    0.153631  0.00514719    0.073533    0.173908   0.0685961    0.191464    0.288525    0.285003    0.133547   0.0202829    0.121388   0.0142484 0.000572293
 0.00877648  0.00888964    0.012772  0.00442389   0.0040903  0.00873839 0.000386794  0.00866365  0.00148946   0.0142478   0.0136529    0.647875  0.00742539   0.0148536 0.000296699   0.0132766    0.136143     3.37369    0.128017  0.00653741  0.00107109   0.0190591   0.0362788 0.000685815   0.0144981   0.0572722  0.00107489   0.0108942   0.0102786  0.00837445   0.0283659 7.84615e-05  0.00726927   0.0128375  0.00584084  0.00292082   0.0151113 0.000318459  0.00424703  0.00299279   0.0140935   0.0238943  0.00885985 0.000641255   0.0166317  0.00242209   0.0102862   0.0268511   0.0528295    0.306778      0.2213    0.037708  0.00390655  0.00222071  0.00167986  0.00915656  0.00502227   0.0018021  0.00870547  0.00052748  0.00477066 1.75686e-05   0.0012042  0.00172299 0.000549357  0.00290403   0.0195284  0.00822165 0.000137449   0.0325788  0.00865671 0.000396594  0.00103143  0.00406565    0.018137   0.0425441   0.0737078  0.00288539  0.00111641   0.0158328   0.0036609    0.153863     3.38366   0.0433514    0.015188  0.00755472  0.00684182   0.0119962   0.0134778 0.000972649 0.000390269  0.00559754   0.0268057   0.0315533  0.00217414   0.0145829    0.010433  0.00234589   0.0360753   0.0032445
  0.0035345    0.054543    0.101982    0.110817    0.276879    0.331467     0.38484    0.373971    0.333399    0.163207    0.169153  0.00742656    0.126173    0.793253     1.47923     6.00201     22.9973     1411.63     36.1609     5.22773     1.38336    0.215867 1.26012e-05   0.0587452    0.194333    0.270947    0.464341    0.360878    0.430551    0.215077    0.221388    0.182182   0.0071583 0.000195083  0.00746743   0.0763637    0.197806    0.201326    0.252578      0.4116    0.416809    0.317371    0.190256    0.087444 0.000947953    0.123528    0.777841     3.00362     11.9841     123.488     123.874     11.2572     3.20457    0.808296    0.182749  0.00090384   0.0701287    0.353305    0.256697    0.414706    0.441979    0.407582    0.217859    0.158559    0.109691   0.0271475  0.00574438  0.00152547    0.101983    0.175379    0.269262    0.365557    0.482322    0.484893    0.366268    0.208531   0.0972433   0.0128994    0.192555     1.14901     5.19825     36.8911     1426.98     22.7026     5.86301     1.51166    0.694911   0.0482591   0.0187369   0.0378228    0.171564     0.38572    0.332344    0.426774    0.349561    0.320224    0.203256    0.109091   0.0444311  0.00966535
 0.00427676   0.0542446    0.551395     1.19832     1.54775     2.05437     2.14216     2.40216     1.56788    0.919951    0.312254   0.0148536    0.793261     3.01138      11.311     33.3503     137.548      8405.5     218.405     32.0265     6.88267     1.19256   0.0178927    0.550515     1.48192     2.10714     2.63412     2.98393     2.29898     1.77812     1.02538    0.516641    0.152487  0.00529381    0.156253    0.502978     1.14984     1.79846     2.18684     2.46826     2.29722      2.0159     1.06082    0.494174   0.0415084    0.799129     4.57851     17.2572     70.2276     739.456     744.109     70.4597     17.4837     4.76557    0.811068  0.00223215    0.412779     1.21115     1.85985     2.28315     2.48891      2.1443       1.759    0.993338     0.49997     0.13486 0.000738471    0.182475    0.669854     1.13799     1.61525     2.28919     2.93323     2.67061     1.98529     1.33764    0.288983 0.000137622    0.948667     6.76416     30.8024     217.336     8504.94     140.697     33.2388     11.1781     3.41558    0.673371  0.00133511    0.272459     1.40044     1.69401     2.33262     2.51663     2.27422     1.59327    0.957314    0.521489    0.195981    0.020296
  0.0121732    0.438648     1.57838     3.67094     5.66597     7.15193     6.84821      8.0792     6.20034     3.82973     1.42444 0.000296509     1.47924      11.311      39.114     117.871     477.275     29073.2     760.437     113.305     24.7955     3.95307 2.21427e-05     1.48315     4.51253     7.56422      9.0633     8.87022     7.96672     6.59297     4.12813     1.68125    0.509802   0.0177689    0.385063     1.96723     3.94616     5.72857     7.67188     8.24727     8.40962     6.33081     4.18493     1.51974  0.00919746     2.75147     16.0345     61.1574     242.967     2552.63     2568.24     242.975     60.9184     16.5379     2.68248  0.00203997     1.31047     4.03872     7.03089     7.88227     8.58549     7.73261     5.80643     4.11181     1.86364    0.554434  0.00802271    0.446156     1.80422     3.88577     6.00343     7.72252     8.26701     8.91394     7.01322     4.49833     1.80697  0.00213427     3.67312     24.9697     109.532     756.099     29342.1      486.28     118.934     38.0034     11.2675     1.89336   0.0122084     1.36536     3.55041       6.406     7.59122     8.09114     7.41013     5.42535      3.3752     1.59402    0.381579   0.0320203
  0.0147413     1.28306     4.91755     10.2079     16.5631     22.9272     24.4371     22.9876     18.0956     11.7891     3.72243   0.0132731     6.00199     33.3505     117.872     357.963     1490.68       88813     2313.93     343.195       75.87     11.9791   0.0313241     4.92832     14.1827     21.0611     25.8728     29.1417     24.8557     18.8736     12.2799     5.86773     1.45729  0.00579587     1.78293     5.83297     11.2902     16.9597     24.2155      25.424     24.6415      20.082     11.9065     4.70645   0.0185064     8.25457     48.9011      185.38     742.046     7825.78     7877.04     743.989     187.061     49.9248     8.33349  0.00584188      4.3064      12.653     20.1862     24.4899     26.2828     23.6435     16.8975     11.5629     5.58767     1.49978    0.007287     1.44037     6.15536     12.3358     18.6617     24.7745     26.7266     26.4691     22.5728     14.5396     4.79971  0.00321325     11.6158     75.4099     336.252     2312.99     89833.2     1511.51     356.354     120.519     34.2832      5.8308   0.0487064     3.86328     11.7735     18.9213     24.5836     23.9468     21.9563     16.3058     10.5913     5.41073     1.62978   0.0513102
   0.280217     5.09349     19.5942     44.3439     68.4912     87.3358     101.052     86.2905     75.3655     57.4783     16.6632    0.136135     22.9976      137.55     477.275     1490.68     6147.12      369188     9641.97     1429.06     317.506     50.1623    0.105997     19.8929     58.6821     92.3161     108.271     112.626     102.013     76.0032     51.1228     22.0189     6.21056   0.0062875     5.23585     23.0654     48.8916     71.5565        94.4     106.949     103.385     83.1038     51.5688     19.6567    0.202204     32.5843     201.436      772.41     3082.02     32466.8     32685.2     3083.61     775.655      207.49     35.4866   0.0167738      17.761     51.9477     81.8897     101.732     106.561     95.1295     76.1142     47.5767     23.2494     5.99888   0.0509008     6.26962     23.3742     48.7487     79.8275     101.972     117.383     109.885     88.9852     59.0254     22.4125   0.0357518     47.9732      296.69     1405.17     9576.98      373329     6118.82     1504.84     489.162     144.605     24.8508   0.0210733     14.8471      47.786     75.2378     91.1445     105.231     93.1198     68.9759     42.9344     26.8665      7.0626    0.163176
    5.36374     324.176      1206.8     2635.74     4044.47      5526.4      5845.9     5690.45     4652.59     2841.23     984.452     3.37377     1411.64     8405.54     29073.1     88812.9      369189 2.21937e+07      578218       85575     18848.2     3155.18     5.17348      1201.8     3512.46     5591.04     6585.12      6991.3     6189.33     4729.67      3073.4     1506.99      398.96    0.361528      356.77     1389.69     2858.99     4345.59     5695.28      6390.8     6198.18     5033.62     3150.18     1131.46    0.129343     2048.17     12277.4     46304.8      184754 1.95262e+06 1.96546e+06      185782     46741.8     12502.7     2103.98    0.146843     1087.17     3086.57     4976.78     6159.75     6363.15     5709.48     4412.25     2875.25     1408.27     362.637    0.204697     394.622     1481.61     3052.67     4755.45        6151     6930.42     6735.41     5540.28      3596.5     1317.49    0.940952     2895.63     18358.8     84230.4      575383 2.24366e+07      371322     89482.8     29455.6     8762.25     1452.24     6.21905     913.297     2773.08     4575.15     5653.25     5845.54     5517.25     4059.88     2633.27     1315.79     401.068     5.58916
   0.257787     8.39652     32.2383     69.3905     105.584     145.056     154.838     148.293     121.226     73.7705     25.5793    0.128016     36.1609     218.405     760.437     2313.92     9641.96      578219     15069.9      2221.3     495.535     82.3025    0.164085     30.6185     90.0896      146.13     169.956     181.891     159.902     121.634     79.4443     37.2282      10.353  0.00524247     9.39592     35.6208     74.3991     114.619     149.287     167.864     159.271      129.49     80.8002     30.0666    0.355604     52.5832     319.274     1209.84     4823.37     50842.9     51212.2     4852.16     1221.96     327.802     54.8051   0.0294137     28.5254      81.225     130.191     161.685     165.714     147.248     116.473     73.2465     36.5517      9.3491   0.0589601     10.5116      38.592     78.7543     122.514     161.199     183.377      174.55     145.285     93.6378     34.3525   0.0385062     74.4629     479.359     2187.71     14934.4      584583     9667.68     2326.19     769.521     225.417     37.0588    0.188258     23.0307     73.0035     119.657     150.562     156.436     143.715     103.667     68.6839     34.2144     10.5764    0.222641
  0.0708271     1.12918     4.60916     10.5634     15.3218      22.103     22.6499     21.0824     17.2286     10.7637     3.76193  0.00653683     5.22777     32.0266     113.305     343.194     1429.06       85575     2221.31     334.578     71.5631     11.4529   0.0100523     4.60503     13.5367     22.3329     25.4018     27.4166     24.2721     18.2871     11.8263     6.10679      1.5317   0.0032684      1.4848     5.29088     11.3761      16.768     22.4685     24.6496     24.8723     19.8477     12.2922     4.40089  0.00712617     7.75448     47.3397      179.13     714.479     7532.56     7571.01     713.222     179.536     49.1018     8.01413  0.00231735     4.25436     12.2524     19.3657     24.4407     24.8279     22.3925     16.5879     11.2591     5.25343     1.48869  0.00151802     1.44024     5.58012     11.6948      18.004     23.6217     26.3405     25.5541     20.9772     14.0624     5.13934   0.0236551     10.9537     69.0356       323.8     2212.15     86541.9     1445.07     346.372      113.19     33.5016      5.6324  0.00279102     3.65894     11.3519     18.9188     20.7358      23.009     22.5654     15.8281     10.7849      5.2801     1.33506   0.0764293
0.000298502    0.356733     1.11028     2.09362     3.75345     4.26605     4.72591     3.73613     3.92281     2.55148    0.889912  0.00107084     1.38336     6.88262     24.7956     75.8696     317.504     18848.1     495.531     71.5632     15.5951     2.82206  0.00558664      1.0622     2.92771     5.04235     5.51016     5.61822     5.29096     3.91227     2.85893     1.26596     0.33358  0.00776821     0.23833     1.12602     2.44613     3.77526      4.8165     5.49374     5.37643     4.44256     2.70073     0.92645  0.00116439     1.60226     10.3311     39.7193     156.836     1656.37     1667.19     157.308     39.4427     10.4689     1.87332 0.000718632     1.02464     2.67405     4.26601     5.09555     5.38571     4.83951     3.91705     2.37877     1.25748    0.320249  0.00348717    0.348927     1.26699     2.44412     3.94213     5.15996     6.02499     5.70627     4.57211     3.37036     1.30938    0.013147     2.56541     15.3547     69.9454     487.683     19048.7     317.377     76.3154      25.945     7.43784     1.16425    0.020673    0.657193      2.5617     3.91763     4.87791     4.98711     4.60158     3.27568      1.8814     1.22346    0.332206   0.0151847
  0.0242572   0.0588859    0.103161    0.687914    0.899121    0.904855    0.742924    0.595854    0.113245     0.36582     0.27897   0.0190575    0.215874     1.19256     3.95306     11.9791     50.1615     3155.16     82.3021     11.4527     2.82209    0.338287 0.000791008    0.180472    0.517024    0.694001    0.869751    0.984064    0.853932    0.598485    0.401144    0.186184    0.041702  0.00743013   0.0136092    0.159416    0.424164    0.601232    0.899648    0.981816    0.823556    0.753337    0.455758    0.187782  0.00630029    0.278983     1.72006     6.65795     25.4958     277.172     279.106     25.9501     6.59859     1.64824    0.285144  0.00113859    0.178522    0.469944    0.703891    0.782972    0.805244    0.791714    0.597399    0.383926    0.224298   0.0285751  0.00642519    0.041172    0.202135    0.366482    0.737372    0.926839     1.03528     1.02933    0.690097    0.520492    0.250118  0.00630457    0.918124     2.57514     12.5131      80.119     3199.97     55.1482     13.5652     4.53959     0.79507    0.115526  0.00336833   0.0880877    0.283705    0.848048    0.712293      1.1634    0.939902    0.760361    0.443822    0.280168   0.0155972  0.00060567
 0.00417207   0.0341528  0.00407866  0.00699088   0.0859209   0.0321567   0.0244335   0.0133239   0.0418096   0.0289509  0.00695732   0.0362787 1.26261e-05   0.0178938 2.22804e-05   0.0313223    0.105995     5.17342    0.164083   0.0100548  0.00558775 0.000791475   0.0320771 0.000439985  0.00123467  0.00307474  0.00412095  0.00321211  0.00405366  0.00758597  0.00675891  0.00708149  0.00256405   0.0113679  0.00102016  0.00579197 0.000837573  0.00549497  0.00105813  0.00445616  0.00372288  0.00154457  0.00534675 0.000820612  0.00708275 4.69248e-05  0.00261274  0.00625361   0.0598155    0.454415    0.456551   0.0362327  0.00550075  0.00256071 0.000470821 0.000172472  0.00225961  0.00412263  0.00205351  0.00528494    0.010246  0.00112205 0.000354241   0.0137288 0.000634766 0.000543975  0.00301001  0.00478246 0.000246606  0.00330473  0.00465542  0.00173472  0.00142502    0.011705   0.0224814   0.0133822 0.000252244   0.0241304  0.00107994  0.00876712   0.0646103    0.106872     5.49793    0.182267   0.0249863   0.0163779    0.015535   0.0158671  0.00514408 0.000986145  0.00854139   0.0245195  0.00293171   0.0134409   0.0387446  0.00247138   0.0359088   0.0706231  0.00525208  0.00364476
   0.010964   0.0560523   0.0819738    0.166176      0.2826    0.314391    0.268311    0.252886    0.469081   0.0713701   0.0554251 0.000685943   0.0587445    0.550512     1.48316     4.92831     19.8929     1201.79     30.6189     4.60501     1.06222    0.180474 0.000440127   0.0861218    0.246682    0.193323    0.361377     0.40941    0.405318    0.193832    0.163375    0.126749   0.0275356  0.00599841   0.0250565   0.0949735    0.173713    0.220164    0.329534    0.281271    0.301612      0.2453    0.170261   0.0748739   0.0619772   0.0964116    0.604031      2.5665       10.22     105.973     106.846     9.90636     2.65882    0.677972    0.120688  0.00330472   0.0680607    0.180089    0.322902    0.308151    0.321637    0.378762    0.218684    0.147871     0.06656   0.0316319  0.00723592   0.0191583   0.0925385    0.137337    0.241208    0.405418    0.417428    0.325876     0.25657      0.1671   0.0251223  0.00463175    0.159338     1.28657      4.1546     30.9801     1214.48     18.7282     4.46773     1.62105    0.525022   0.0760738  0.00408466   0.0863472   0.0646379    0.277665    0.346731    0.269489    0.329288    0.195826    0.126451   0.0398982   0.0215828  0.00847413
  0.0257215  0.00192032    0.161461    0.439816    0.630653    0.857617    0.865554     0.89448    0.898216    0.511705    0.210367   0.0144965    0.194338     1.48191     4.51254     14.1827     58.6822     3512.46     90.0897     13.5368     2.92769    0.517023   0.0012346    0.246679    0.638936      1.1141     0.99277     1.15219    0.976216    0.731541    0.491853    0.273489   0.0571519  0.00419729   0.0982918    0.209278    0.524449    0.773079     0.88816    0.953471     0.94114    0.748755    0.445035    0.197148  0.00469162    0.363806     1.91699     7.13578     28.9915     308.794      310.54     29.1852     7.47532     2.11593     0.34803  0.00803601    0.147587     0.50985    0.655535     1.00608    0.953195     1.03764     0.72677    0.429932    0.232195   0.0548371 0.000875628   0.0506266    0.268809    0.370618    0.769149    0.936324     1.28225     1.04401    0.962021    0.299382    0.204376  0.00632003    0.500194     2.84178     13.2391     89.3736     3552.79     58.1383     13.8776     4.38565     1.21712    0.208971  0.00971929    0.198045    0.364012    0.694748    0.752697    0.988226    0.912523    0.644046     0.28639    0.160555   0.0613197   0.0337143
  0.0170351    0.171324    0.320878    0.590296     1.11262     1.41945     1.72166      1.3463     1.23645    0.851498    0.129257   0.0572735    0.270945     2.10713     7.56424     21.0612     92.3165     5591.04      146.13     22.3328     5.04235     0.69399  0.00307527    0.193323      1.1141     2.15852     1.72098     1.54319     1.48848     1.09798    0.808481    0.440061    0.128373  0.00791782   0.0867602    0.394505    0.820889     1.13868     1.43893     1.83638     1.39537     1.33166    0.831434     0.37459   0.0439596    0.479217     3.49445     11.3372     46.4133     491.039     493.174     46.7155     11.6695     3.25534    0.515861  0.00318045    0.254837    0.766859     1.33942     1.54402     1.75957     1.32604     1.15829     0.80559    0.371735   0.0831858   0.0263935    0.142644    0.328658     0.66845     1.22765     1.56847     1.53157     1.64636     1.06029    0.929526    0.469476  0.00646687    0.827449     4.50632     20.6608     143.727      5653.7     93.5672       22.03     7.70438     2.22654    0.473481    0.013841    0.347154    0.535355      1.1908     1.74882     1.49237     1.40077     1.04397    0.828784    0.278482   0.0942698   0.0249893
  0.0127955   0.0902908    0.261586    0.895694     1.05298     1.57749     1.77903     1.69912     1.28353    0.830937    0.416901  0.00107481    0.464342     2.63413     9.06334      25.873     108.272      6585.1     169.957     25.4018     5.51014    0.869755  0.00412182     0.36138    0.992769     1.72099     2.10329      2.1231     1.89252     1.41887    0.949245    0.334608   0.0735844  0.00478733    0.125074    0.330791    0.808472     1.26773     1.85258     1.82918     1.84646     1.54968      1.0374    0.311231  0.00154454    0.665878     3.62767     13.9694      54.694     581.128     584.834     55.8927       13.81     3.63738     0.68882  0.00118185    0.306849    0.981538     1.40333     1.98304     1.82601     1.60932     1.30548    0.832179    0.405151     0.13578 0.000295046   0.0851311    0.446984    0.928274     1.33949     1.84326     2.09636     1.94448     1.59447    0.984639    0.379472  0.00223207    0.780441     5.32415     25.2012     169.827     6659.33     107.892     26.6165     8.93478     2.63438    0.445307  0.00111541    0.338906    0.916505     1.21438     1.54276     1.46951     1.56206    0.945591    0.621486    0.345335    0.075956  0.00288978
0.000538181   0.0963736    0.434089    0.774014     1.28418     1.84856      2.4714     1.78161     1.42314    0.937619      0.2126   0.0108944    0.360883     2.98391     8.87028     29.1416     112.626     6991.35     181.892     27.4166     5.61823    0.984069  0.00321229    0.409416     1.15219      1.5432     2.12308     3.20839     1.88312     1.49386    0.924424    0.492817    0.104287 0.000657458    0.108584    0.397099    0.795657     1.64578     1.71797     2.06876      1.8756     1.54227    0.850653    0.342303  0.00639701     0.50395     3.84421      13.959     58.7757     614.235     617.292     58.4563     14.3072     3.94754    0.558795 0.000943991    0.368548    0.873059     1.49397     2.03486     1.94523     1.85758     1.39722    0.958631    0.366624    0.170622   0.0017528    0.139558    0.475481    0.890395     1.52985     1.92763     1.62369     2.18683     1.77385     1.00996    0.375202   0.0019663    0.920659     6.57964     25.5685     182.443     7069.77     115.257     27.7812     9.25168     2.71197    0.430558   0.0133779    0.286391    0.717952      1.3526     1.99562     1.63293     1.69384     1.34269    0.997138    0.393165    0.179682   0.0245769
 0.00769565    0.244668    0.336741    0.941694     1.22096     1.30116     1.58558      1.4955      1.2925    0.888069    0.366508   0.0102795    0.430554     2.29898     7.96678     24.8558     102.012     6189.37     159.901     24.2721     5.29102    0.853918  0.00405399    0.405317    0.976209     1.48847     1.89251     1.88311     1.39522     1.33784    0.797298      0.4803    0.112718  0.00150319    0.086648    0.367778    0.759711     1.16718     1.68647     1.66639      1.8009     1.35993    0.910608    0.287819 0.000278791    0.644247     3.41219     13.0964     51.4807      543.68     547.314     51.9305     13.1269       3.414     0.63862 0.000151634    0.284786    0.898812     1.34119     1.65377      1.7522     1.50173     1.16785    0.847203    0.380139   0.0764317 9.14504e-05    0.138848    0.428147    0.861438     1.27291     1.75308      1.8055     1.89595     1.48082     1.01178    0.312095   0.0048193    0.861943     5.15449     23.5206     159.978     6250.15     101.579     25.4777     8.37227     2.24335    0.436956  0.00510257    0.243666    0.620528     1.34028     1.48661     1.52622     1.55701     1.16637    0.580409    0.345091    0.222868  0.00115667
  0.0187452   0.0643485    0.332708    0.545255    0.821221     1.34248     1.53689     1.77994    0.921746    0.581424    0.192865  0.00837379    0.215077     1.77811     6.59299     18.8736     76.0034     4729.67     121.634     18.2873     3.91227    0.598487  0.00758716    0.193833    0.731541     1.09798     1.41886     1.49386     1.33784    0.884665    0.716513    0.374689   0.0875475  0.00114639   0.0894806    0.328357    0.657008    0.873344     1.19499     1.31029     1.24293     1.08158    0.610939    0.242949 0.000706767    0.407227      2.7303       9.918     39.1674     415.552     417.265     39.4618     9.85517      2.5886    0.419264  0.00648476    0.195128    0.683443     1.07583     1.40582     1.42465     1.08769    0.912602    0.582241    0.274688   0.0902936 0.000623216   0.0548544    0.257544    0.715274     1.15978     1.32145     1.59555     1.51046     1.08382    0.674724     0.25233  0.00422308    0.707541     3.97823     17.6918     122.455     4779.25     79.6149     18.2302     6.15141     1.94401    0.334181   0.0289733    0.209942    0.542568     1.06972     1.04709     1.32507     1.22942    0.665331    0.681251    0.331374    0.084219  0.00609691
0.000311356   0.0548801    0.129838    0.376146    0.724424    0.666623    0.733007    0.671213    0.609211    0.451212    0.139978   0.0283658     0.22139     1.02536     4.12816       12.28     51.1226      3073.4     79.4449     11.8263     2.85895     0.40114  0.00675807    0.163379    0.491851    0.808482    0.949253    0.924427    0.797305    0.716516     0.25046    0.167956   0.0626681  0.00647519   0.0559221    0.167887     0.44658    0.654449    0.879067    0.834267    0.862731    0.643089    0.485398    0.115195  0.00339613    0.342596     1.61622     6.41068     25.3655     271.019     273.171     25.5793     6.51979     1.72956    0.300268  0.00229751    0.130338    0.502324    0.659658    0.813817    0.884499    0.841672    0.648154    0.420121    0.206395   0.0601431  0.00561208   0.0382587     0.20133    0.396557    0.628011     0.78753    0.948194     0.82505    0.810495      0.5199     0.22761  0.00233024     0.27619     2.58482     11.8129     78.6882     3115.51     51.1231     12.6962     4.03695     1.25848    0.292869  0.00843694   0.0908671    0.602764    0.527163    0.705042    0.794189    0.738034    0.710954     0.28552    0.174736   0.0318315   0.0128619
  0.0102337   0.0603111   0.0553584    0.105847    0.279983    0.304211    0.416694    0.341107    0.260544    0.183173   0.0742838 7.84946e-05    0.182185    0.516642     1.68125     5.86773     22.0191     1506.99     37.2281     6.10676     1.26598    0.186185   0.0070823    0.126751    0.273482    0.440062    0.334609    0.492812    0.480297    0.374688    0.167955     0.51221   0.0039431  0.00865824   0.0324537    0.096995      0.1635    0.300263    0.379842    0.348398    0.434649    0.323927    0.190287   0.0685345  0.00452707    0.137445    0.860643     3.02403     12.9483     132.559     133.173     12.6536     3.17208    0.901269    0.134141 8.75529e-05   0.0659688    0.222693    0.243548    0.381177    0.369305    0.467663    0.249621    0.220762   0.0884016   0.0482674  0.00229906   0.0149577    0.209111    0.200302    0.270101    0.398137    0.560484    0.446338    0.318479    0.269674   0.0924558   0.0279271    0.225677     1.03638     5.84848     37.4508     1531.35     22.7167     5.79182     1.70549    0.474388   0.0487041 0.000572301     0.12208    0.129641    0.341183    0.589516    0.372318    0.225543    0.259792    0.099279    0.173721   0.0273994  0.00597622
 0.00356148  0.00385173   0.0365188   0.0420351   0.0501221    0.137128    0.160683     0.13228    0.164767   0.0828721    0.027062  0.00726883  0.00715825    0.152485    0.509798      1.4573     6.21063     398.965      10.353     1.53169    0.333589   0.0417004  0.00256392   0.0275345   0.0571508    0.128374   0.0735851    0.104286    0.112717   0.0875471   0.0626683  0.00394308   0.0214475  0.00417577   0.0123906   0.0198067   0.0478434   0.0891671    0.101187    0.154852    0.086708   0.0814634   0.0632137   0.0172442 0.000919838   0.0481363    0.224441    0.898078     3.29065     35.4101     35.4574     3.29665    0.880946    0.231942   0.0403437   0.0115758   0.0265142   0.0949313    0.103527    0.076844    0.129685    0.113329    0.134917    0.072897   0.0322234  0.00690388  0.00146049  0.00703442  0.00989633   0.0545934   0.0756618    0.127539    0.149033    0.103559    0.123729   0.0662517   0.0229712  0.00441397   0.0319558    0.360704     1.56498     10.1752      404.18     6.43684     1.83207     0.60627     0.12735   0.0783589  0.00264203  0.00205295   0.0583865   0.0445985    0.107419   0.0627005   0.0970538   0.0204211   0.0675132  0.00883711  0.00810136  0.00594977
  0.0176902  0.00229611   0.0162796    0.027671  0.00218122  0.00652874    0.018156  0.00166602  0.00602124 0.000687361 0.000344152   0.0128376 0.000194941  0.00529386   0.0177692  0.00579569  0.00628963    0.361464   0.0052415  0.00326898  0.00776888  0.00742981   0.0113684  0.00599761   0.0041976  0.00791729  0.00478763 0.000657359  0.00150311  0.00114666  0.00647511  0.00865825  0.00417567   0.0599389  0.00713985  0.00952756  0.00270329  0.00828107 0.000236139  0.00430692  0.00124058  0.00238202   0.0106504  0.00694159   0.0114838  0.00268848  0.00269108  0.00414142  0.00394658   0.0315687   0.0337375  0.00469975 0.000265142 7.83242e-05  0.00294074  0.00152731 0.000332521 0.000686529   0.0015847 0.000482232  0.00140364  0.00116518  0.00782258   0.0128646  0.00148763   0.0172315   0.0221338 0.000512142 5.77936e-05 0.000563072  0.00238372 0.000636328  0.00782751   0.0092173  0.00622312  0.00373564   0.0226378  0.00312182  0.00381947  0.00593187  0.00608501  0.00816222    0.322983  0.00398614  0.00400646  0.00915945  0.00367726  0.00275333  0.00288782   0.0135386  0.00664548  0.00462598  0.00478067 0.000208777  0.00195243 0.000806702  0.00654509  0.00476461  0.00378757   0.0286589
   0.028798  0.00936151   0.0205416    0.052825     0.10711   0.0519541    0.171422     0.16563   0.0348028   0.0229095    0.134319  0.00584094  0.00746722    0.156259    0.385064     1.78295     5.23586     356.768     9.39585      1.4848     0.23833   0.0136091  0.00102029   0.0250561    0.098293   0.0867601    0.125074    0.108582   0.0866479   0.0894821   0.0559229   0.0324538   0.0123904  0.00713952    0.296545   0.0181162   0.0260916   0.0398894   0.0881961    0.125752   0.0840093   0.0713346   0.0474445   0.0151338  0.00607385   0.0254105     0.20248    0.714155     2.97775     31.1516     31.3221     2.97684      0.6883    0.231767    0.035301  0.00283182   0.0277673   0.0530482    0.121245    0.109398    0.117212    0.113758   0.0569735   0.0479181   0.0153317    0.100964  0.00472044  0.00413647   0.0197651   0.0556268   0.0840957   0.0895011      0.1385   0.0832168    0.063228   0.0644742   0.0257109  0.00237015   0.0505279      0.4443      1.3169     9.62615     365.225     6.03106     1.74251    0.620712   0.0623293  0.00975773  0.00536145    0.108266   0.0246099     0.12499    0.096201    0.131847   0.0750596    0.120173   0.0425001   0.0855486   0.0146652  0.00910187
 0.00285447   0.0940915    0.123917    0.166358    0.222641    0.256284    0.513445    0.189936    0.336651   0.0934007    0.125613  0.00292014   0.0763644     0.50299     1.96725     5.83298     23.0652     1389.69     35.6211     5.29092     1.12602    0.159417  0.00579229   0.0949747    0.209277    0.394502    0.330795    0.397101     0.36778    0.328356    0.167886    0.096995   0.0198073   0.0095281   0.0181157   0.0213783    0.194941    0.264222    0.373865    0.374716    0.419463    0.317378    0.211245    0.046452   0.0026992    0.146331    0.728705     2.91388     11.5891     122.523     123.622     11.6327     2.93144    0.776478    0.162051    0.023193     0.06589    0.206845    0.309495    0.321521    0.396544    0.366422    0.298001    0.190212   0.0778293   0.0343215  0.00273094   0.0339192   0.0951124    0.188137    0.283035    0.339682    0.484798    0.382772    0.281669    0.181921   0.0759967  0.00230489    0.226263     1.25814     5.10531     36.0164     1403.49     23.6703     6.08832     2.09771    0.577107   0.0917101  0.00933692   0.0914475     0.13117    0.255701    0.261854      0.4901    0.333217    0.180076    0.120202    0.099444   0.0853716  0.00263597
   0.015272   0.0475938    0.145254    0.379868    0.663224    0.780165    0.806638    0.646415    0.710892    0.457924   0.0919338   0.0151118    0.197806     1.14984     3.94613     11.2902     48.8913     2858.99     74.3986      11.376     2.44614    0.424163 0.000837536    0.173711    0.524449    0.820893    0.808479    0.795658    0.759709    0.657012    0.446578      0.1635   0.0478439  0.00270315   0.0260908    0.194942    0.281614    0.588248    0.689789    0.878274    0.768402    0.697166    0.384488    0.125058  0.00346762    0.275229     1.55686      5.8833     23.7515     251.533     252.393     23.9885     6.00696     1.57712    0.265991  0.00076044    0.151386    0.367944    0.623095    0.828898    0.773715    0.759693    0.613799    0.388699    0.196033   0.0738792   0.0212592   0.0419899    0.204105    0.344193    0.644104    0.840422    0.762951    0.887163    0.789394    0.437005    0.156224  0.00160352    0.376533     2.29029     10.7107     73.7805     2891.58     47.4833     11.7235     3.97497     1.08486    0.195964  0.00218949     0.14228    0.268509    0.569254    0.778732     0.84921    0.730089    0.575104    0.324292    0.161872   0.0634652  0.00680815
 0.00358072    0.101744    0.168074    0.452113    0.830277     1.05782     1.05858    0.998157    0.877638    0.413037    0.279761 0.000318508    0.201326     1.79846     5.72856     16.9598     71.5556     4345.61     114.618      16.768     3.77528    0.601223  0.00549383    0.220161    0.773072     1.13868     1.26773     1.64575     1.16719    0.873347     0.65445    0.300262    0.089168  0.00828118   0.0398892    0.264225    0.588247    0.918856     1.17418     1.20635     1.33429    0.930972    0.708895    0.181863  0.00019757    0.403986     2.34189     9.03198     36.3107     382.063     384.571      36.364     9.10145     2.52311    0.399876  0.00080746    0.201573     0.51088    0.922131     1.17142     1.26138       1.108     1.22403    0.546011    0.340917   0.0554919  0.00705487    0.172041    0.275246    0.577774    0.877509      1.1524      1.2476     1.21737     1.07761    0.565782    0.227467   0.0270297    0.516637     3.64396     16.3332     111.867     4379.07     71.6972     17.6231     5.85827     1.69914    0.242741  0.00352186    0.114768    0.585214    0.869088     1.18131      0.9924     1.02064    0.711937    0.420552    0.254582   0.0798405  0.00226625
  0.0237012     0.11593    0.271831    0.720492     1.10378     1.33052     1.30948     1.71257     1.37809    0.822026    0.324699  0.00424665     0.25257     2.18683     7.67188     24.2154     94.3998     5695.31     149.287     22.4686     4.81648    0.899639  0.00105847     0.32953    0.888163     1.43892     1.85259     1.71797     1.68648     1.19499    0.879065    0.379842    0.101187 0.000236236   0.0881957    0.373866    0.689782     1.17418     1.47894     1.71082      1.5024     1.32709    0.735628    0.295259  0.00272767    0.489467     3.21086     11.6364     47.7177      500.54     503.831       47.71     11.9982     3.25954    0.531424 0.000447676    0.314827    0.815127     1.34403     1.48559     1.60124     1.68221     1.02036     0.75125    0.385094   0.0938476  0.00316573    0.156889    0.406318     0.78165     1.24185     1.57098     1.71736     1.55079      1.5136    0.897876    0.293515  0.00595845    0.708699     5.08532     21.6439     148.489     5760.98     94.2884     24.0887     7.14826     1.99973    0.358071    0.010251    0.267616    0.633981      1.2261     1.35115     1.43408     1.48573     1.10639    0.670647    0.398665   0.0831823  0.00473521
   0.011681   0.0696407    0.497383     0.84358     1.20822     1.50273     1.66548     1.74647     1.51839     0.82917    0.254942  0.00299323    0.411603     2.46826     8.24728     25.4241     106.949     6390.78     167.865     24.6495     5.49377    0.981822  0.00445604    0.281271    0.953464     1.83639     1.82919     2.06877      1.6664      1.3103    0.834268    0.348399    0.154855  0.00430675    0.125751    0.374716    0.878273     1.20634     1.71083     1.92369     1.89752     1.37907    0.988694    0.324065  0.00359606    0.636494     3.50274     13.5366     52.6529     564.047     567.222     53.4911     13.5585     3.62296    0.609442  0.00464492    0.289526    0.888269     1.45896     1.84757     1.79608     1.69005     1.32723    0.857375    0.371393    0.112301  0.00166618   0.0703951    0.442397    0.882109     1.28815     1.72268     2.11415     1.84528     1.80418     0.91886    0.377939 2.84645e-05    0.864166     5.34555      24.252     165.198     6470.83     104.525      26.017     8.52527     2.40612     0.36159  0.00293969    0.288416    0.862639     1.37015     1.67151     1.94544     1.53202     1.27677    0.830596    0.242837   0.0950287   0.0217735
  0.0015776    0.100393    0.349962    0.789615     1.23163     1.46183      1.5038     1.52736     1.31662    0.980608    0.241421   0.0140938     0.41681     2.29723     8.40954     24.6416     103.384     6198.27     159.273     24.8724     5.37644    0.823547  0.00372299    0.301617    0.941149     1.39537     1.84646     1.87559     1.80089     1.24292    0.862733    0.434648   0.0867082  0.00124068   0.0840085    0.419464    0.768405     1.33429     1.50238     1.89753     1.64624     1.52867    0.846158    0.322207  0.00144543    0.531417     3.52422     12.6852     52.1475     545.157     548.628     52.2369      13.015     3.53887    0.559902 0.000636637    0.323925    0.853793      1.4423     1.69208     1.81273     1.65774     1.32554    0.736096    0.371814   0.0709655 0.000563366    0.101682    0.374381    0.872043     1.29878     1.73876      1.8706     1.77891     1.37147     1.20474    0.298711 0.000111369    0.600849     5.17513     23.9922     159.288     6247.16     105.309     24.3162     8.28941     2.47546     0.46285  5.0666e-06     0.29409    0.790772     1.19564      1.5272     1.74503     1.64286     1.20517    0.759738    0.387304   0.0819191  0.00137448
 0.00318307   0.0362775    0.268834    0.576282    0.945863     1.29021     1.68686     1.34874     1.02555    0.467836    0.202988   0.0238938    0.317371     2.01591     6.33085      20.082     83.1035     5033.64      129.49     19.8477     4.44257    0.753333  0.00154486    0.245301    0.748763     1.33164     1.54967     1.54226     1.35993     1.08158    0.643089    0.323934   0.0814632  0.00238219   0.0713348    0.317381    0.697165    0.930971      1.3271     1.37906     1.52868    0.938177     0.74925    0.245071 0.000656284    0.503178     2.66554      10.711     41.4664     442.437     445.493     41.6225     10.7057      2.7784    0.506031 0.000253526    0.259609    0.688598     1.10799     1.27663     1.47403     1.30286    0.968051    0.668076    0.304276    0.109366 0.000282813   0.0552834    0.286935    0.670207     1.09285     1.41506     1.44476     1.58081     1.25206    0.637743    0.273914  0.00190069     0.53326     4.36258      18.665     129.476     5086.08     83.8037     20.4889     6.88593     1.97568    0.321836 0.000862736    0.246744    0.550166      1.1003     1.12861     1.29379     1.27027    0.896319    0.665083    0.391341   0.0908618 0.000293023
 0.00215672    0.054142    0.184902     0.35612    0.639799    0.903027     0.79119    0.594885    0.796307    0.457833    0.165186  0.00886035     0.19026     1.06083     4.18492     11.9065      51.569     3150.23     80.8008     12.2921     2.70075    0.455752  0.00534511    0.170256    0.445033    0.831441     1.03741    0.850657    0.910606     0.61094      0.4854    0.190285   0.0632147   0.0106509   0.0474456    0.211244    0.384484    0.708895    0.735633    0.988693    0.846165    0.749249    0.420481    0.185481  0.00125658    0.267534     1.76931     6.46601     26.7279     276.817     278.522     26.5703     6.65887       1.777    0.289707  0.00144686    0.157815    0.414242    0.739788    0.838867    0.881126    0.879322    0.504532    0.419047    0.194219   0.0322225  0.00120769   0.0347371    0.200663    0.448298    0.662641    0.914774    0.754351    0.992351    0.792955    0.524733    0.188889   0.0055667    0.340701     2.59128     11.5174     81.0601     3199.27     52.6675     12.3877     4.31936     1.19111    0.280171 0.000474761     0.20215     0.40971    0.819928    0.845358    0.839472    0.837227    0.498411    0.471414    0.189688   0.0191128  0.00167684
0.000878675   0.0249502    0.052034    0.139375    0.246906    0.294457     0.27291    0.264996    0.324004    0.220975   0.0333505 0.000641117   0.0874426    0.494176     1.51973     4.70642     19.6567     1131.52     30.0666     4.40094    0.926452    0.187782 0.000820348   0.0748698    0.197145    0.374589    0.311234    0.342296     0.28782    0.242954    0.115193   0.0685349   0.0172435  0.00694168   0.0151337   0.0464524    0.125059    0.181858    0.295258     0.32406    0.322205     0.24507    0.185481   0.0732232 0.000238376    0.121917    0.583946     2.38685     9.24239     98.9384     99.7772     9.36362     2.41382    0.616382    0.104311 9.44507e-05   0.0341785    0.167656    0.249208    0.317126    0.317476     0.23658    0.211113    0.124306   0.0922826   0.0321021  0.00320315   0.0289163   0.0764003    0.164998     0.34113    0.306332    0.358909    0.351604    0.272299     0.21642   0.0721852  0.00534015    0.198871    0.850556     4.35872     30.3936     1141.42     19.7566     4.60771     1.62702     0.43884   0.0726099  0.00759174   0.0333707    0.145694    0.310578    0.292713    0.237981    0.291778    0.214318    0.104271   0.0187687    0.040421   0.0117892
  0.0241429   0.0725418   0.0165072   0.0436919   0.0104666  0.00121219  0.00485337  0.00255045  0.00184273  0.00555495   0.0200473    0.016632 0.000948311   0.0415091  0.00919603   0.0185024    0.202211    0.129451    0.355628  0.00712498  0.00116449  0.00630112  0.00708273   0.0619789  0.00469206   0.0439617  0.00154456  0.00639742 0.000278858  0.00070658  0.00339649  0.00452684  0.00091985   0.0114836  0.00607502  0.00269869   0.0034681 0.000197467  0.00272797  0.00359643  0.00144581 0.000656079  0.00125659 0.000238457  0.00398777  0.00052292 0.000466663 7.49226e-05  0.00321993   0.0215558   0.0202491  0.00242527 0.000604442 0.000404058 0.000340302  0.00200611 8.39775e-05 0.000287958 0.000961776 0.000206817  0.00115224 0.000423866  0.00240693  0.00135053  0.00109951  0.00105822   0.0185167  0.00175958  0.00377975  0.00336509    0.010948   0.0016161  0.00545926  0.00948657  0.00127496  9.4667e-05    0.043946   0.0114875   0.0160702  0.00198272   0.0524826    0.320376   0.0481215      0.3212   0.0215865  0.00583818    0.028782   0.0128054  0.00778234 0.000410801  0.00463973  0.00575416    0.013659   0.0214457  0.00328845  0.00226835   0.0305389  0.00124214   0.0105939   0.0445258
  0.0135728   0.0764997   0.0757508    0.237453    0.378359    0.564596    0.509644    0.503767    0.406856     0.28354    0.115383  0.00242225    0.123527    0.799134     2.75145     8.25454      32.584     2048.21     52.5831     7.75451     1.60226    0.278982 4.68694e-05   0.0964105    0.363808    0.479217    0.665879    0.503951    0.644245    0.407225      0.3426    0.137443   0.0481332  0.00268894   0.0254104    0.146334    0.275231    0.403989    0.489463    0.636496    0.531419    0.503174    0.267543    0.121921 0.000523111    0.188385     1.19601     4.23322     17.0663     179.502     180.719     17.1279        4.33     1.15222    0.162553 5.56549e-05    0.095788    0.267675    0.464331     0.58418    0.546735     0.52311    0.392744    0.276769    0.132327   0.0393857  0.00254933   0.0356552    0.147907    0.254297    0.421879    0.596164    0.481095    0.640884    0.457852    0.271536    0.140336  0.00159502    0.268708     1.66835     7.50536     51.8893     2071.23     33.7106     7.94534     2.90786    0.753487    0.130483 0.000672477   0.0827627    0.301203    0.434368    0.560128    0.565162    0.581773    0.370249    0.287141    0.118967   0.0653457   0.0128706
 0.00288179    0.197189    0.664473      1.4733     2.08975     2.92953     2.93794     3.12876     2.46035      1.5333    0.624468   0.0102846     0.77783     4.57852     16.0344     48.9007     201.436     12277.4     319.276     47.3393     10.3311     1.72007  0.00261342    0.604018       1.917     3.49448     3.62765     3.84422     3.41217      2.7303      1.6162    0.860638    0.224443  0.00269029    0.202477    0.728698     1.55686     2.34191     3.21086     3.50272     3.52423     2.66557     1.76931    0.583957 0.000466282     1.19597     6.82995     25.6432      102.28     1080.76     1089.12     102.687     26.0174     6.86563     1.19112 2.64498e-05    0.586211      1.7005     2.74273     3.34116     3.63101     3.09784     2.48283     1.56489    0.802419    0.213488  0.00137965    0.192201    0.782349     1.70207     2.47778     3.32009     3.92597     3.65932     3.07822     1.92747    0.659627  0.00388003     1.55212     10.2984     46.1138     315.855     12423.4     201.264     50.4607      16.266     4.95341    0.762429  0.00267184    0.453158     1.36417     2.48926     3.34353     3.02877     3.09758     2.29874     1.41201    0.705268    0.185529  0.00702393
 0.00848497    0.699651     2.39326     5.88834     9.27621     10.7393     12.9766     12.1869     9.51601     6.09372     1.95943   0.0268538     3.00368     17.2572     61.1578      185.38      772.41     46304.5     1209.84     179.129     39.7194     6.65795  0.00625518     2.56649     7.13577     11.3371     13.9693      13.959     13.0964     9.91807     6.41072     3.02401    0.898055  0.00414285    0.714155     2.91389     5.88331     9.03204     11.6364     13.5365     12.6852      10.711     6.46609     2.38684 7.50326e-05     4.23322     25.6431     96.7052      386.87     4077.95     4104.02     388.205     97.5488     26.2223     4.41331  0.00161767     2.31146     6.42388     10.4307     12.8637     13.3058     12.0073     9.09623      6.0211     2.85914    0.713551  0.00173589    0.591797     3.02827     6.41044     9.98479     13.0248     14.4981     14.0381     11.4217     7.44124     2.78352   0.0124244     6.01662     38.5749     176.149     1202.83     46889.8     774.617     186.257     61.9297     18.3986     2.68047   0.0176705     1.90015     6.01523     9.68563     13.0667     13.1948     10.7525     9.12086     5.72931     3.02782     1.29096  0.00413271
  0.0302356     2.54995     10.8082     21.1719     34.1842      45.325     48.8382     47.9078     38.9521     23.2908     7.92537   0.0528288     11.9842     70.2277     242.967     742.042     3082.02      184753     4823.38     714.479     156.836     25.4962   0.0598195     10.2201     28.9915     46.4131     54.6938     58.7757     51.4807     39.1677     25.3657     12.9483     3.29064  0.00394606      2.9778      11.589     23.7516     36.3106     47.7179     52.6532     52.1475     41.4665     26.7282     9.24253  0.00322265     17.0666      102.28      386.87     1541.04     16259.2     16368.5     1547.59     389.945     103.851     17.7095 0.000167453     9.04639     25.7024     41.3448     51.0054     52.9371     47.4534     36.7316     23.9075     11.9254     2.93824  0.00177768     3.42789     12.3894     25.3786     39.5334     51.3592     57.5941     55.9863     45.6965     30.5962     10.8944  0.00820316     24.8886     152.205     703.929     4793.99      186825     3092.02     745.876     244.304     74.3385     11.9464   0.0361975     7.56756     22.8329     38.1593     47.0641     48.9572     45.1314     34.3346     21.5267     10.7412     3.41593   0.0463001
   0.476377     28.9714     107.278     230.687     359.869     485.058     512.907      502.17     409.706     249.314     87.9071     0.30677      123.49     739.455     2552.63     7825.73     32466.9 1.95263e+06     50842.7     7532.51     1656.38     277.175    0.454386     105.973     308.795      491.04     581.132     614.234     543.679     415.549     271.018     132.558       35.41   0.0315766     31.1521     122.524     251.535     382.061     500.537     564.045     545.157     442.438     276.821     98.9388   0.0215702     179.504     1080.76     4077.94     16259.1      171751      172903     16343.4     4112.65     1098.65     184.948  0.00336407     95.2747     272.585     435.658     539.563     559.561     502.756     388.026     253.678     123.901     32.0721   0.0162183     34.7761     130.365     269.346     416.759     540.971     610.042     592.338     486.117     316.422     115.793   0.0737804     254.246     1615.31     7405.62     50586.3 1.97423e+06       32634     7883.04        2589     772.429     127.654    0.581683     80.1099     243.582     402.093     496.563     513.392     485.075     359.547     231.146     115.875     35.5738     0.50923
   0.480877     29.6449     107.772     234.553     365.212     487.671     515.669     507.047     411.054     249.196      88.645    0.221282     123.874     744.114     2568.26     7877.05     32685.1 1.96547e+06     51212.2     7571.06     1667.19     279.106    0.456438     106.846      310.54     493.176     584.834      617.29     547.315     417.263      273.17     133.174     35.4577   0.0337364     31.3221     123.622     252.394     384.573     503.829     567.221     548.621     445.494     278.522      99.778   0.0202668     180.718     1089.12     4104.04     16368.6      172903      174066     16453.2     4141.55     1105.87     186.005  0.00272949     96.1226     274.077     438.514     543.105     563.227     507.011     390.857     255.121     124.939     32.0453  0.00899031     34.8427     130.996     271.651     418.727     545.326     616.085     596.313     488.161     318.447      116.61   0.0796883     256.734     1626.33      7462.1     50952.9 1.98723e+06       32884     7939.03     2605.83     774.801     127.882    0.515201     80.7804     246.406     405.835     499.895     515.559     486.908     365.574     234.257     116.021     36.3182    0.482043
    0.05205     3.13526     9.87889     22.4711     34.1888     47.0142     48.4617     46.9429     38.6703     23.3314     8.49385   0.0377145     11.2571     70.4598     242.971     743.991      3083.6      185780     4852.15     713.217     157.308     25.9505   0.0362315      9.9065     29.1853     46.7155     55.8926     58.4559     51.9304     39.4619      25.579     12.6537     3.29665  0.00470124     2.97682     11.6327     23.9885     36.3638     47.7101     53.4913      52.237     41.6223     26.5702     9.36367  0.00242482     17.1278     102.687     388.204      1547.6     16343.3     16453.1     1557.54     391.194      104.38     17.6632 0.000311083     9.08884     25.8249     41.6919     51.3273     53.3474     47.8743     37.0331      24.052     11.9466     2.97316  0.00147031     3.31329     12.3955     25.6976     39.3493     51.8238     57.6941     56.6083     46.0717      29.507      10.847   0.0132409     23.9026     154.358      701.75     4816.28      187820     3097.73     748.706       246.6     72.9097     11.9306    0.051484     7.23921     23.0676     37.8322     47.3502     48.2903     46.9509     34.0666     22.7948     11.0722     3.47876   0.0657654
  0.0188819    0.744802     2.48415     5.89277     8.36082     11.7567     12.1409     12.2944     10.0842     6.21669     1.96259  0.00390633     3.20451     17.4836     60.9185     187.062     775.656       46742     1221.96     179.536      39.443     6.59862  0.00549949      2.6588     7.47531     11.6695       13.81     14.3072     13.1269     9.85506     6.51974      3.1721     0.88094 0.000264942    0.688305     2.93147     6.00695     9.10143     11.9981     13.5586      13.015     10.7057     6.65891     2.41383 0.000604022     4.33003     26.0174     97.5484     389.946     4112.67     4141.52     391.194     98.7926     26.3909     4.42069 0.000368546     2.29088     6.54931     10.4006     13.0582     13.4399     12.0633     9.42296     6.08549     2.84502    0.767897 0.000356501    0.644141      3.1017     6.40926     10.0417     12.9714     14.5976     14.2952     11.9077      7.6722     2.93538  0.00125414     6.04211     38.7426     176.227     1216.68     47316.3     781.075     188.147     62.7739     18.8974      3.0833   0.0301463     1.91473     5.61463     9.43396     12.2176       12.27     11.7897     8.39876     5.70666     2.74075    0.877639   0.0146902
 0.00611528    0.237874    0.685169     1.60528     2.23273     3.31486     3.13945     3.25056     2.69688     1.67573    0.613987  0.00222066    0.808303     4.76559      16.538      49.925     207.488     12502.7     327.802     49.1017     10.4689     1.64827  0.00256187    0.677957     2.11593     3.25539     3.63739      3.9475     3.41399      2.5886     1.72954    0.901279    0.231938 7.84809e-05    0.231766    0.776487     1.57711      2.5231     3.25953     3.62298     3.53885     2.77841     1.77703    0.616382 0.000404165     1.15221     6.86562     26.2222     103.851     1098.65     1105.87      104.38     26.3909     7.03207     1.18133 0.000161892    0.610175     1.71769     2.80155     3.53483     3.59554     3.28784     2.51237      1.6482    0.800801    0.217101  0.00131477    0.222387    0.761372     1.73824     2.66838       3.419     3.73381     3.82641        3.11     2.16505    0.731715  0.00194582      1.8199     10.4229      47.812     323.757     12635.2     208.811      50.416     16.7149     4.93275    0.811806  0.00319067    0.520199     1.67887     2.67618     3.18141      3.2279     3.31972     2.25796     1.62264    0.673339    0.196105  0.00279558
 0.00100557   0.0111588    0.136518    0.220571    0.428219    0.636092    0.520973    0.599795    0.458225    0.217085    0.124528  0.00168032    0.182751    0.811063     2.68247     8.33353     35.4864     2103.99     54.8049     8.01417     1.87332    0.285148  0.00047068    0.120692    0.348027    0.515858     0.68882    0.558796     0.63862    0.419265    0.300265    0.134139   0.0403431  0.00294057   0.0353004    0.162047    0.265995    0.399877    0.531423    0.609434    0.559896    0.506034    0.289696    0.104315 0.000340447    0.162552     1.19111     4.41335     17.7095     184.948     186.007     17.6632     4.42072     1.18132    0.168793 0.000282939   0.0988056    0.299563      0.4776    0.574686    0.596164    0.564491    0.427876    0.247898    0.124505   0.0417049   0.0020833   0.0309673    0.135678    0.289524    0.450734    0.570196    0.562309    0.723011    0.522071    0.356743    0.140604   0.0132386    0.247459     1.67666     8.19115     55.6783     2132.76     35.5247     8.62654     3.04826    0.826887     0.10056  0.00215056   0.0838374    0.312732    0.488944    0.487157      0.5847    0.685755    0.405682    0.209202   0.0903965   0.0388832  0.00834351
  0.0214984   0.0218708  0.00400053  0.00262413  0.00431441  0.00175215  0.00286065 0.000610747  0.00331979   0.0223623  0.00464335  0.00915708 0.000903612  0.00223213   0.0020396  0.00584322   0.0167784    0.146836   0.0294115  0.00231761 0.000718628  0.00113872 0.000172347  0.00330504   0.0080358     0.00318  0.00118207 0.000943544 0.000151586  0.00648423  0.00229745 8.74616e-05   0.0115749  0.00152667  0.00283183   0.0231934  0.00076038 0.000807605 0.000447656  0.00464555 0.000636867 0.000253344  0.00144744 9.45049e-05  0.00200643  5.5681e-05 2.64453e-05   0.0016171 0.000166804  0.00336489  0.00273594 0.000310849 0.000368414 0.000161603 0.000282592   0.0290659 0.000113458 0.000584841 0.000100879  0.00415503 0.000389486  0.00251142   0.0020018  0.00107305  0.00187879  0.00106438   0.0067659  0.00142065  0.00164133  0.00307166  0.00391119 0.000140781  0.00089417 0.000891566  0.00197935   0.0376756  0.00178697 0.000252049  0.00544016  0.00048755  0.00393978   0.0248625   0.0400844   0.0132078   0.0210838  0.00467205   0.0232342  0.00029105  0.00481932 0.000261793  0.00606402  0.00591454   0.0107364 0.000446642  0.00147258  0.00112449  0.00685423  0.00272073  0.00616523  0.00629125
0.000198653   0.0203461   0.0688563    0.109771    0.283672    0.223592    0.244908     0.34501    0.219635    0.123556    0.088024  0.00502221   0.0701307    0.412785     1.31049     4.30645      17.761     1087.17     28.5256     4.25441     1.02465    0.178528  0.00225976   0.0680622    0.147588    0.254839    0.306852    0.368546    0.284785    0.195129    0.130338   0.0659691   0.0265137 0.000332449   0.0277679   0.0658894    0.151382    0.201573    0.314826    0.289525    0.323921    0.259609    0.157815   0.0341786 8.39235e-05   0.0957886    0.586206     2.31145     9.04639     95.2749     96.1232     9.08881     2.29085    0.610185   0.0988056 0.000113469   0.0681447     0.14522     0.24358    0.306741    0.295273    0.256373    0.220616    0.151271   0.0733323   0.0253777  0.00273559   0.0200617     0.07418    0.158765    0.247456    0.286357    0.343033    0.411799    0.262879    0.214872   0.0681179 0.000977882    0.197345    0.939866     4.20746     28.8824     1096.42     17.9736     4.60224      1.5897     0.45703   0.0964564    0.034425   0.0272645    0.151085    0.281109    0.312119    0.197374    0.266772    0.226887    0.114527   0.0996259  0.00909781 0.000331115
  0.0113691   0.0325475    0.111146    0.354225    0.575879    0.619047     0.76604    0.749054    0.688884    0.389228    0.211338   0.0018022    0.353308     1.21114     4.03874     12.6531     51.9476     3086.55     81.2246     12.2525     2.67403    0.469948  0.00412267     0.18009    0.509845    0.766864     0.98153    0.873048     0.89881     0.68344     0.50232    0.222693   0.0949318 0.000686315   0.0530471     0.20685    0.367943    0.510875    0.815128    0.888272    0.853795    0.688603    0.414238    0.167653 0.000287997     0.26768     1.70049     6.42385     25.7022     272.584     274.078     25.8247     6.54931     1.71768    0.299567 0.000584904    0.145219     0.42673    0.706508    0.904644    0.844076    0.795961    0.627826    0.441044     0.18139   0.0615588  0.00130822   0.0291592    0.221156    0.394227    0.644228    0.886113     1.09631     1.04587    0.802838    0.441616    0.223992  0.00334098    0.370925      2.4145      11.687     82.5856     3143.69     53.0295     12.7258     4.28334     1.41504    0.232049  0.00100608    0.131273    0.349424     0.56735    0.952485    0.654557    0.703648    0.480435    0.384486    0.195813   0.0438301  0.00694727
0.000613635    0.146008    0.287383    0.614208     0.85655     1.19997     1.17537     1.34706     1.08822    0.768958    0.251918  0.00870644    0.256698     1.85986     7.03089     20.1861     81.8899     4976.77     130.191     19.3657     4.26602    0.703901  0.00205344    0.322906    0.655534     1.33941     1.40333     1.49398     1.34118     1.07582    0.659659    0.243547    0.103526  0.00158486    0.121243    0.309496    0.623094    0.922121     1.34402     1.45896      1.4423     1.10799    0.739784    0.249208 0.000962012    0.464315     2.74275     10.4307     41.3449     435.656     438.514     41.6918     10.4005     2.80156    0.477587 0.000100761    0.243579    0.706506      1.1173     1.37624     1.44619     1.22316     1.00055    0.646975    0.323509   0.0812736  0.00220781   0.0946866    0.323118    0.679532    0.987506     1.40795     1.65499     1.42365     1.23302    0.836685    0.244981  0.00133771    0.678679     3.99773     18.7162     130.383     5008.11     82.4799     20.0669     6.52919     1.93328    0.403346   0.0011429    0.241363    0.641852      1.2085     1.29868     1.16462     1.16012    0.752279    0.572266    0.265242   0.0730349   0.0209934
1.36947e-07    0.160895    0.441177     0.63222      1.0595     1.60342     1.64854     1.49617     1.18323    0.722166    0.309932 0.000527599    0.414707     2.28317     7.88224       24.49     101.732     6159.73     161.686     24.4407     5.09558    0.782963  0.00528566    0.308158     1.00608     1.54402     1.98305     2.03487     1.65377     1.40581     0.81382    0.381182    0.076844 0.000482231    0.109397    0.321515    0.828898     1.17142      1.4856     1.84757     1.69207     1.27663    0.838865    0.317116 0.000206708    0.584183     3.34113     12.8638     51.0051     539.561       543.1     51.3276     13.0583     3.53481    0.574703  0.00415526    0.306745    0.904652     1.37624     1.74003     1.66126     1.59122      1.1615    0.822703      0.3817    0.113055  0.00287638    0.125963    0.528179     0.89426       1.287     1.79106     2.01433     1.86005     1.49455     0.99241    0.372428 2.97549e-05     0.71527     5.20843     24.0926     159.417     6211.05     104.318     25.1427     8.19882     2.42005    0.451612  0.00385931    0.200022    0.876934     1.33099     1.39635     1.62665     1.46398    0.945873    0.714047     0.40218   0.0774605 0.000340771
0.000572042   0.0756733    0.313902    0.839672     1.21516     1.70705     1.77813     1.53301     1.22373    0.830989    0.259589  0.00477059    0.441982      2.4889      8.5855     26.2829      106.56     6363.12     165.713     24.8278     5.38575    0.805232   0.0102453    0.321642    0.953195     1.75956     1.82602     1.94524      1.7522     1.42463    0.884498    0.369302    0.129688  0.00140366    0.117211    0.396542    0.773721     1.26138     1.60125     1.79608     1.81274     1.47403    0.881117    0.317481  0.00115184    0.546731     3.63098     13.3057     52.9372     559.559     563.228     53.3476     13.4398     3.59557    0.596168 0.000389577    0.295274    0.844071     1.44619     1.66126     1.68253     1.59241     1.27266    0.824788    0.419786    0.129436  0.00322177    0.111671    0.419457    0.914638      1.3131     1.75671     1.91402     1.98216     1.68846     1.00234    0.407889  0.00159987    0.780009     5.49808     23.7991     164.966     6434.29     104.755     26.0231     8.81401     2.67739    0.435798  0.00106581    0.217453    0.974267     1.42307     1.55347     1.60726     1.64046     1.25648    0.797533    0.283702   0.0818161   0.0373835
 0.00421607   0.0831588    0.186615    0.750136    0.929917     1.41457     1.52728     1.48262     1.36685    0.811366     0.17862 1.75577e-05    0.407577     2.14433     7.73262     23.6438     95.1295     5709.46     147.248     22.3923     4.83954    0.791714  0.00112165    0.378765     1.03764     1.32605     1.60932     1.85756     1.50174     1.08769    0.841667    0.467659     0.11333  0.00116529    0.113761    0.366421    0.759693       1.108      1.6822     1.69004     1.65774     1.30286    0.879324    0.236583 0.000423596    0.523114     3.09783     12.0073     47.4533     502.755     507.013     47.8744     12.0634     3.28786    0.564496    0.002512    0.256372    0.795957     1.22317     1.59123     1.59241     1.28441     1.12875    0.803221    0.332189    0.115786  0.00191442    0.131786    0.434895     0.79649     1.13613     1.55675     1.74965     1.74009     1.45754    0.941734    0.316019  0.00131352    0.775749     4.84249     21.8107     146.897     5781.18      97.323     22.6695     7.79112     2.32045    0.272248  0.00951057    0.281431    0.709183      1.2506     1.45919      1.3869     1.39292    0.919783    0.602699    0.404754   0.0914871    0.010142
  0.0128207   0.0330922    0.266034    0.493171    0.614825     1.17182     1.03784     1.03539    0.991462    0.594237    0.272663  0.00120475    0.217858     1.75899     5.80639     16.8974     76.1139     4412.26     116.472     16.5879     3.91704    0.597401 0.000354072    0.218677    0.726767     1.15829     1.30547     1.39723     1.16785    0.912599    0.648158    0.249622    0.134915  0.00782225   0.0569739    0.298003      0.6138     1.22403     1.02035     1.32722     1.32553    0.968049    0.504533    0.211113  0.00240721    0.392743     2.48285     9.09617     36.7314     388.025     390.857      37.033     9.42297     2.51238    0.427882  0.00200205    0.220615    0.627827     1.00056      1.1615     1.27266     1.12875    0.848466     0.58426    0.285474    0.047599  0.00207695    0.161646    0.318799    0.650314    0.865148     1.26886      1.2831      1.3485     1.07394    0.679296     0.32505  0.00388112    0.614656     3.23958     16.8131     113.445      4436.9     73.8352     17.4186     5.43702     1.97338    0.237958   0.0206813    0.187837    0.689584     1.07968    0.885696     1.15872     1.29145    0.798762      0.5342    0.501284   0.0377151  0.00278374
  0.0128808   0.0869015    0.161127    0.414624    0.436196     0.64262    0.689205    0.807044    0.572024    0.312015    0.109321  0.00172258    0.158558    0.993344     4.11178     11.5629     47.5768     2875.27      73.246     11.2592     2.37879    0.383922   0.0137287    0.147874    0.429941    0.805589    0.832178    0.958625    0.847202    0.582242    0.420119    0.220762   0.0728981   0.0128652   0.0479183    0.190211    0.388702    0.546014    0.751247    0.857371    0.736094    0.668083    0.419046    0.124307  0.00135057    0.276777     1.56489      6.0211     23.9073     253.678      255.12     24.0523     6.08549      1.6482    0.247903  0.00107318    0.151271    0.441047    0.646969    0.822705    0.824792    0.803222    0.584258    0.240073    0.183466   0.0513141   0.0018727   0.0362318    0.211131    0.367766     0.64084    0.788499    0.832868    0.824732    0.747464    0.482133    0.172599  0.00122373    0.328577     2.39681     10.5946     72.8561     2909.19     48.4471     11.8643     3.67938     1.27139    0.187829 0.000314495    0.100207    0.453466    0.691454    0.763592    0.730455    0.780308    0.486164    0.345088    0.160948   0.0688005 0.000975693
0.000447546   0.0267325    0.151416    0.200646    0.208403    0.373328    0.546938    0.459077    0.252634    0.184352   0.0814943 0.000549358    0.109694    0.499978     1.86366     5.58768     23.2494     1408.26      36.552     5.25337     1.25746    0.224296 0.000634502   0.0665598    0.232195    0.371735    0.405151    0.366625    0.380135    0.274689    0.206395   0.0884021   0.0322235  0.00148753   0.0153315   0.0778292    0.196036    0.340918    0.385094     0.37139    0.371815    0.304271    0.194218    0.092282  0.00109934    0.132328    0.802409     2.85917     11.9254     123.901      124.94     11.9467     2.84506    0.800791    0.124507  0.00187868   0.0733357    0.181389    0.323508    0.381699    0.419784    0.332189    0.285473    0.183467    0.168548   0.0166253  0.00129246   0.0522382    0.113586    0.173446    0.257958    0.368774     0.43404    0.390775     0.34912    0.208483    0.088774  0.00253259    0.212526     1.11556     5.77618     36.0066     1425.32     23.8011     5.75404     1.83035    0.467319    0.112507   0.0121522    0.046828    0.141683    0.278036    0.338617    0.464458    0.420999    0.217164    0.179601    0.112855   0.0165036  0.00202494
  0.0039819  0.00437158   0.0375811  0.00400402   0.0769004   0.0604662    0.060586   0.0694644    0.325628    0.042337   0.0569316  0.00290429    0.027147    0.134862     0.55443     1.49978      5.9988     362.635     9.34903     1.48869     0.32024   0.0285759 0.000543889   0.0316334   0.0548354   0.0831852    0.135782    0.170621   0.0764313   0.0902957   0.0601425    0.048268  0.00690404   0.0172316    0.100962   0.0343216   0.0738789   0.0554913   0.0938468      0.1123    0.070967    0.109368   0.0322228   0.0321018  0.00105831   0.0393845    0.213491    0.713545     2.93825     32.0719     32.0451     2.97313    0.767878    0.217102    0.041702  0.00106435   0.0253787   0.0615565   0.0812747    0.113057    0.129437    0.115787   0.0476002   0.0513126   0.0166248   0.0953009 0.000841049  0.00515297   0.0458757   0.0265678   0.0505433    0.150845    0.111082    0.115853   0.0997556   0.0380891    0.032043  0.00545419   0.0593393    0.384225     1.41504     9.34028     368.228     6.13925     1.52278     0.58307   0.0981997   0.0119181   0.0128011   0.0211555    0.114574   0.0866616     0.20222   0.0251266     0.15863   0.0542757 0.000967725  0.00678572   0.0190048  0.00653147
 0.00579584   0.0801211  0.00196865  0.00241094  0.00117866  0.00345457   0.0024941  0.00336521   0.0109354  0.00116541  0.00414651    0.019528  0.00574452 0.000738463  0.00802271  0.00728837   0.0508967    0.204762   0.0589463  0.00151799  0.00348742  0.00642465  0.00301015  0.00723591 0.000875556    0.026393 0.000295003  0.00175289 9.14427e-05 0.000623243   0.0056119  0.00229905  0.00146038   0.0221337   0.0047203  0.00273118   0.0212596  0.00705468  0.00316563  0.00166576 0.000563402 0.000282842  0.00120754  0.00320332   0.0185153  0.00254935  0.00137965  0.00173559  0.00177838   0.0162172   0.0089933  0.00146999 0.000356498  0.00131523  0.00208298  0.00676522  0.00273581  0.00130843  0.00220829  0.00287632  0.00322153  0.00191439  0.00207711  0.00187294  0.00129242 0.000841058    0.104286  0.00186947  0.00502556  0.00261806  0.00303878  0.00297203 0.000774289  0.00203591 0.000158056  0.00801846   0.0012815  0.00254694   0.0233201   0.0007155  0.00105205   0.0748132    0.287024   0.0365634   0.0301029   0.0106143  0.00156935   0.0123594   0.0159108  0.00020404  0.00572869 5.13162e-05  0.00389226 9.40056e-05  0.00421608 0.000563757  0.00180346   0.0394214  0.00713598    0.018135
  0.0237883   0.0297875   0.0783344   0.0706398    0.093893    0.131232    0.220855    0.195107   0.0909617    0.112127   0.0010658  0.00822094  0.00152523    0.182474    0.446153     1.44038     6.26953     394.621     10.5115     1.44022    0.348922   0.0411704  0.00478255   0.0191571   0.0506276    0.142642   0.0851297    0.139556    0.138846   0.0548544   0.0382587   0.0149578  0.00703429 0.000512161  0.00413637   0.0339186   0.0419906    0.172042    0.156887   0.0703947    0.101683   0.0552838   0.0347353   0.0289165  0.00175944   0.0356562    0.192203     0.59179      3.4279     34.7764     34.8427     3.31327    0.644138    0.222388   0.0309684  0.00142039   0.0200617   0.0291592   0.0946864    0.125964    0.111671    0.131788    0.161647   0.0362328    0.052238  0.00515313  0.00186934   0.0328356   0.0134252   0.0653255   0.0745765   0.0998213    0.144995    0.167703     0.12935   0.0705769   0.0193283   0.0241124   0.0678151    0.357851     1.66574     9.87312     395.425     6.13861     1.69469    0.529492    0.194378   0.0346482  0.00568855    0.017779   0.0312156    0.166995    0.127172   0.0757793   0.0793944    0.066011   0.0866692   0.0881654   0.0358634  0.00262296
 0.00163457    0.043305    0.112661    0.186916     0.25929    0.247624    0.352557    0.416147    0.193367    0.157108   0.0855728 0.000137537    0.101981    0.669846     1.80422     6.15537      23.374     1481.62     38.5919     5.58011       1.267    0.202136 0.000246555   0.0925369    0.268805    0.328657    0.446983    0.475477     0.42815    0.257543    0.201331     0.20911  0.00989618 5.78043e-05   0.0197649   0.0951123    0.204109    0.275248    0.406319    0.442402    0.374382    0.286937    0.200665   0.0764007  0.00378002    0.147906    0.782356     3.02822     12.3894     130.366     130.997     12.3955     3.10171    0.761363    0.135675  0.00164137   0.0741789    0.221157    0.323122     0.52818    0.419458    0.434893    0.318799    0.211127    0.113587   0.0458753  0.00502528   0.0134245    0.211037    0.189908    0.339896    0.452653    0.443857    0.519133    0.273402    0.227405    0.114287  0.00544013    0.190252     1.19389     5.80046     37.8785     1493.16     23.7584     5.86871     2.02973    0.727589    0.098814  0.00342974   0.0862358    0.175759    0.306946    0.374868    0.452939    0.305633    0.132601   0.0990419    0.177927   0.0325946  0.00163478
  0.0121339   0.0187037    0.110841    0.393891    0.799139    0.773905    0.948474    0.926819     0.40519    0.637731    0.145594   0.0325805    0.175384     1.13799     3.88576     12.3357     48.7488     3052.69      78.754     11.6948     2.44412    0.366493  0.00330457    0.137334    0.370619    0.668446    0.928266    0.890401    0.861435    0.715269    0.396561    0.200302   0.0545933 0.000563151   0.0556264    0.188136    0.344195    0.577773    0.781652    0.882107    0.872053    0.670202    0.448301    0.164999  0.00336436      0.2543     1.70207     6.41035     25.3786     269.347     271.652     25.6976     6.40929     1.73824    0.289521  0.00307192    0.158766     0.39423    0.679533    0.894257    0.914638    0.796485    0.650316    0.367765    0.173448    0.026567  0.00261786   0.0653268    0.189904    0.499632    0.669855    0.893441    0.808776    0.946682    0.810893    0.536441    0.165472 0.000622459    0.385388     2.51202     11.1069     78.5418     3097.38     49.9252     12.3373     4.02782     1.21408    0.240776 5.36759e-05    0.162623    0.349279     1.03469    0.646838    0.818374    0.679879    0.740452    0.481419    0.159242   0.0809349  0.00870848
 0.00983451   0.0843966    0.258996    0.498437     0.90999     1.20471     1.39572     1.19501    0.954335    0.717815    0.204357  0.00865586    0.269259     1.61527     6.00341     18.6617     79.8273     4755.52     122.514      18.004     3.94212    0.737374  0.00465533    0.241211    0.769143     1.22765     1.33949     1.52984     1.27291     1.15978    0.628011    0.270098   0.0756625  0.00238369   0.0840961    0.283031    0.644102    0.877508     1.24185     1.28815     1.29879     1.09285    0.662643    0.341135   0.0109481    0.421878     2.47779     9.98485     39.5335     416.761     418.728     39.3493     10.0417     2.66836    0.450725  0.00391106    0.247461    0.644226    0.987511     1.28699      1.3131     1.13613    0.865145     0.64084    0.257957    0.050543   0.0030386   0.0745763    0.339902    0.669855     1.33924     1.30751     1.64705      1.3366     1.12721    0.774669    0.322393  0.00135504    0.728345     4.10994     17.5289     122.065     4795.69      80.727     18.8434     6.26714     2.19396    0.320455  0.00436889    0.205601    0.452018    0.997169     1.58037    0.954246     1.07868      0.8756    0.621775    0.231211     0.08727  0.00847308
 0.00224421    0.077604    0.328541    0.689688    0.881169     1.39273     1.52236     1.48985      1.5711    0.686994    0.340475 0.000396567    0.365551     2.28919     7.72255     24.7747     101.972        6151     161.199     23.6217        5.16    0.926839  0.00173441    0.405423    0.936337     1.56848     1.84326     1.92764     1.75308     1.32146    0.787531    0.398139     0.12754 0.000636315   0.0895005    0.339685    0.840418      1.1524     1.57097     1.72268     1.73876     1.41506    0.914777    0.306334  0.00161618    0.596176     3.32006     13.0248     51.3597     540.968     545.327     51.8241     12.9715     3.41902    0.570193 0.000140958    0.286358    0.886119     1.40796     1.79107      1.7567     1.55675     1.26886    0.788499    0.368775    0.150844  0.00297161    0.099822    0.452655    0.893445     1.30752      1.6791      2.0549     1.76455     1.43795     0.84842    0.359935   0.0053482    0.725705     4.85321     23.1967     161.107     6217.25     102.309       24.65      7.7387     2.41053    0.390848  0.00541972    0.236103    0.742289     1.41861     1.59715     1.58799     1.40596    0.970853    0.763924    0.359819   0.0575972    0.015585
  0.0138937   0.0784301    0.442931     1.31322      1.2319      1.7812     1.73757     2.00408     1.49615    0.974276    0.425545  0.00103122    0.482327     2.93325     8.26701     26.7267     117.382     6930.47     183.376     26.3404     6.02504     1.03528   0.0014249    0.417424     1.28225     1.53157     2.09636     1.62368     1.80551     1.59555    0.948189    0.560481    0.149034  0.00782805    0.138499    0.484797     0.76295     1.24759     1.71736     2.11416     1.87059     1.44476    0.754361    0.358907   0.0054605    0.481094     3.92598     14.4981     57.5947     610.043     616.083     57.6941     14.5975     3.73383    0.562317 0.000894188    0.343035     1.09633       1.655     2.01434     1.91403     1.74965      1.2831    0.832871    0.434039    0.111082 0.000774234    0.144997    0.443857    0.808785     1.64703     2.05491     2.45425     2.18023     1.85643     1.04794    0.420596  0.00420628    0.953574     4.85256     26.4306     180.928     7015.69      116.48     27.5935     9.15425     2.71337    0.459533  0.00282871    0.281587    0.894866     1.31949     1.79088     1.87429     1.40327     1.19947    0.448652    0.385677    0.127368  0.00730676
   0.016656    0.144572    0.347736    0.956247     1.18304     1.67468     1.90534     1.83403     1.32253    0.843601    0.377779  0.00406514    0.484893      2.6706     8.91393     26.4693     109.886     6735.43      174.55     25.5542     5.70626     1.02934   0.0117061    0.325874     1.04401     1.64638     1.94446     2.18683     1.89595     1.51046    0.825047    0.446337    0.103558   0.0092162   0.0832189    0.382771    0.887164     1.21737     1.55078     1.84528      1.7789      1.5808    0.992353      0.3516  0.00948814    0.640885     3.65933     14.0383     55.9866     592.339     596.315     56.6082     14.2952     3.82641    0.723015 0.000891332    0.411798     1.04587     1.42365     1.86005     1.98215     1.74009      1.3485    0.824734    0.390775    0.115855  0.00203587    0.167699    0.519138    0.946683     1.33659     1.76456     2.18024     2.26104       1.537     1.09429    0.346627  0.00341929    0.912319     5.53011     25.9377      173.67     6791.91      112.36     26.2173     9.02412     2.78151    0.376495  0.00252765    0.200889     1.01156      1.3056     1.58244     1.81989     1.77767     1.14181    0.828674    0.587994    0.247666  0.00629506
 0.00167113    0.110942    0.435824    0.714364    0.993518     1.47979     1.46754     1.76763    0.948689    0.845863    0.317343   0.0181361    0.366269      1.9853      7.0132     22.5725     88.9849     5540.28     145.286      20.977     4.57209    0.690087   0.0224803    0.256569     0.96203     1.06028     1.59447     1.77385     1.48081     1.08383    0.810502    0.318478    0.123731  0.00622346   0.0632261    0.281673      0.7894     1.07761     1.51361     1.80419     1.37148     1.25206    0.792957    0.272303   0.0012747    0.457855     3.07827     11.4217     45.6964     486.117     488.163     46.0717     11.9077     3.10999    0.522063  0.00197959    0.262881     0.80283     1.23301     1.49456     1.68847     1.45754     1.07394    0.747464    0.349117   0.0997575 0.000157993     0.12935    0.273403      0.8109      1.1272     1.43797     1.85642       1.537     1.13452    0.976526    0.391623  0.00846181    0.710407     4.72315     21.1934     144.169     5572.26     95.4738     21.8518     7.63767     2.00496    0.414167   0.0108676    0.177964    0.679725     1.05771      1.4902     1.95237     1.48626     1.05588    0.571057     0.28964    0.188865    0.017586
 0.00682626   0.0957072    0.202845    0.625522    0.661025    0.888448     1.05389    0.900724    0.863481    0.513637     0.41655    0.042546    0.208533     1.33763     4.49828     14.5396     59.0256     3596.51     93.6387     14.0625     3.37039    0.520493   0.0133794    0.167099    0.299382     0.92952    0.984643     1.00995     1.01178    0.674724    0.519895    0.269674   0.0662489  0.00373569   0.0644745    0.181917     0.43701     0.56578    0.897885    0.918863     1.20474    0.637736    0.524735    0.216422 9.45738e-05    0.271533      1.9275     7.44128      30.596     316.423     318.446     29.5071     7.67217     2.16505    0.356739   0.0376757    0.214877    0.441613      0.8367    0.992416     1.00234    0.941742    0.679309    0.482135    0.208484   0.0380883  0.00801836   0.0705762    0.227402     0.53644    0.774661    0.848421     1.04794      1.0943    0.976532    0.825041    0.218583  0.00758573    0.408206     2.90193     13.4252     92.5537      3632.7       58.63     14.9008     4.56428     1.54349    0.250432   0.0227276    0.199188    0.361795    0.682959    0.976642    0.954805    0.894185    0.696629    0.375064    0.238423    0.170917   0.0151478
  0.0182825   0.0249561  0.00811926    0.169084    0.181479     0.32815    0.393346    0.245636    0.349013    0.347836   0.0618835   0.0737092   0.0972461    0.288982     1.80701     4.79974     22.4125     1317.48     34.3529     5.13928     1.30937     0.25012 0.000252156   0.0251214    0.204372    0.469482    0.379468    0.375204    0.312096     0.25233    0.227612   0.0924546    0.022971   0.0226383   0.0257098   0.0759968    0.156223    0.227465    0.293517    0.377941    0.298714    0.273918    0.188891   0.0721868   0.0439427    0.140343    0.659641     2.78353     10.8944     115.794      116.61      10.847      2.9354    0.731709    0.140608  0.00178696   0.0681189    0.223991     0.24498    0.372425    0.407891    0.316022    0.325042      0.1726   0.0887769    0.032043  0.00128185   0.0193281    0.114288    0.165474    0.322394    0.359933    0.420599    0.346627    0.391626    0.218581    0.184606  0.00606191    0.190231    0.875204     4.98287     34.2561     1336.89     23.9599     5.16015     1.70768    0.438986     0.18314  0.00076747   0.0611522     0.80657    0.378184    0.377261    0.276775    0.285923    0.194907    0.187946    0.189815   0.0360449   0.0284355
 0.00359167   0.0348459  0.00726815  0.00127203   0.0138586   0.0174277     0.03483  0.00550554   0.0423454   0.0362643   0.0107421  0.00288529   0.0128989  0.00013753  0.00213361  0.00321475   0.0357464    0.940739   0.0385077   0.0236592   0.0131452  0.00630354   0.0241296  0.00463188  0.00632156  0.00646702  0.00223168   0.0019662  0.00481896  0.00422268  0.00233099   0.0279251  0.00441445   0.0031221  0.00237031  0.00230486  0.00160373   0.0270307  0.00595838 2.84205e-05 0.000111401  0.00190116  0.00556604   0.0053405   0.0114872  0.00159482  0.00387722   0.0124222   0.0081942   0.0737884   0.0797312   0.0132369  0.00125387  0.00194586    0.013238 0.000252325 0.000977885  0.00334095  0.00133765 2.97206e-05  0.00160001  0.00131342  0.00388111  0.00122375  0.00253231  0.00545518  0.00254702   0.0241125   0.0054405 0.000622577   0.0013547  0.00534835  0.00420591  0.00341912  0.00846225  0.00758552  0.00606341   0.0742687   0.0207418     0.01414   0.0305685   0.0201788     0.78638     0.02988   0.0100627   0.0100592  0.00809813  0.00164969  0.00192166   0.0109644   0.0661195   0.0138217   0.0130143   0.0104906  0.00650553   0.0193084   0.0175478   0.0158992  0.00547792   0.0438031
  0.0283276   0.0340226    0.153688    0.407162    0.597189     0.76664    0.582735    0.883948    0.370172    0.363196    0.181526  0.00111614    0.192557    0.948637     3.67309     11.6159     47.9729     2895.65     74.4635     10.9536      2.5654    0.918127  0.00107954     0.15934    0.500198    0.827458    0.780438    0.920659    0.861956    0.707546    0.276179     0.22568   0.0319555  0.00381958   0.0505274    0.226263    0.376528    0.516645    0.708711    0.864179    0.600857     0.53324    0.340694    0.198873   0.0160689    0.268704     1.55217     6.01662     24.8884      254.25     256.733     23.9024     6.04214     1.81989    0.247461  0.00544069    0.197344    0.370916    0.678675    0.715277    0.779999    0.775751    0.614667    0.328572    0.212526   0.0593432   0.0233193   0.0678178    0.190256    0.385382    0.728354    0.725705    0.953574    0.912309    0.710425    0.408208    0.190229   0.0207416    0.354324     2.30073     11.4529     73.7079     2934.56     47.1389     12.6183     3.90499     1.08073    0.199891   0.0159106    0.114025    0.284345    0.117991    0.719347    0.821335    0.892166    0.572757    0.311637    0.321169   0.0479492  0.00582302
  0.0440812    0.403068     0.81766     1.97254     3.76995      4.3657     4.40447     4.89513     3.37325     2.74696    0.744542   0.0158343       1.149     6.76417     24.9699     75.4106      296.69     18358.7     479.359     69.0354     15.3546     2.57519  0.00876848     1.28657     2.84176     4.50631     5.32411     6.57971     5.15447     3.97822     2.58484     1.03639    0.360705  0.00593233    0.444304     1.25817      2.2903     3.64397     5.08534     5.34555     5.17511      4.3626     2.59129    0.850575  0.00198176     1.66834     10.2985     38.5747     152.205     1615.31     1626.32     154.358      38.743      10.423     1.67663 0.000487645    0.939851     2.41448     3.99776     5.20845     5.49809     4.84245     3.23958     2.39681     1.11555    0.384221 0.000715519     0.35785     1.19391     2.51204     4.11002     4.85319     4.85253     5.53015     4.72315     2.90191    0.875188   0.0141393     2.30072     15.4626     67.6719     477.539     18565.6     299.957     75.7293     25.0861     6.84424     1.24228    0.020636      0.8575     2.23855     3.74253     4.47454     4.51964     4.53206     3.51883      2.8827     1.17291    0.333657  0.00150467
  0.0243949      1.2691     4.30521     10.7056     15.1858     20.6248     23.3647     21.7267     16.6998     10.4289     3.98508  0.00366299     5.19838     30.8022     109.533     336.248     1405.16     84229.5     2187.72       323.8     69.9452     12.5131   0.0646064      4.1546     13.2391     20.6607     25.2013     25.5685     23.5205     17.6917     11.8129     5.84843     1.56498  0.00608367     1.31691     5.10532     10.7106     16.3333      21.644     24.2521     23.9923      18.665     11.5175     4.35867   0.0524789     7.50529     46.1137     176.148     703.931     7405.62     7462.12     701.749     176.229     47.8119     8.19106  0.00393699     4.20737      11.687     18.7163     24.0927      23.799     21.8106     16.8131     10.5947     5.77615     1.41505  0.00105139     1.66576     5.80048      11.107     17.5289     23.1968     26.4307     25.9377     21.1935     13.4253     4.98288    0.030568     11.4528     67.6724     330.622      2183.6     85177.7     1407.97     342.961     112.419     33.0031     5.36771  0.00722719     3.31405     10.0726     17.2029     21.8911      23.571     21.0804     15.3464     10.0962     5.08137     1.52926   0.0545831
   0.174406     7.67205     31.0919     69.1934     105.447     142.401     154.595     149.572     118.343       74.07     26.1405    0.153865     36.8904     217.335     756.097     2313.01     9576.99      575386     14934.5     2212.15     487.684     80.1182    0.106887     30.9802     89.3738     143.727     169.827     182.443     159.978     122.455     78.6878      37.451     10.1752  0.00816052     9.62619     36.0162     73.7803     111.866     148.488     165.198     159.287     129.477     81.0601     30.3935    0.320351     51.8907     315.853     1202.84     4794.04     50586.1     50952.9     4816.29     1216.68     323.756     55.6782   0.0248613     28.8822     82.5858     130.383     159.416     164.965     146.896     113.445     72.8567     36.0063     9.34027   0.0748083     9.87306     37.8787     78.5416     122.066     161.107     180.928     173.671     144.167     92.5535      34.256   0.0201539     73.7077     477.537     2183.61     14857.4      581643      9646.9     2318.31     766.028     222.091     37.4085    0.307235     23.7273     74.5694     116.853     151.691     154.336     142.322     102.826     69.2389     36.0334     10.8211    0.155692
    5.48366     328.768     1226.52        2661     4092.83     5581.13     5919.45     5778.69     4692.62     2867.04     997.066     3.38404     1426.98     8504.95     29342.1       89833      373329  2.2437e+07      584583     86542.8     19048.7        3200      5.4985     1214.48     3552.78     5653.69     6659.32     7069.79     6250.15     4779.25     3115.48     1531.35      404.18     0.32293     365.226     1403.49     2891.58     4379.06     5760.99     6470.82     6247.13     5086.07     3199.28     1141.42    0.048113     2071.23     12423.4     46889.9      186825 1.97423e+06 1.98724e+06      187820       47316     12635.1     2132.77   0.0401421     1096.42     3143.74     5008.09     6211.04     6434.26     5781.21      4436.9     2909.21     1425.33     368.224    0.286998     395.422     1493.17     3097.37     4795.69     6217.28     7015.66     6791.92     5572.24     3632.71     1336.88    0.786582     2934.62     18565.6     85178.5      581643 2.26868e+07      375191     90562.9     29756.7     8849.51     1469.64     6.17098     920.299     2785.86     4625.72     5725.75     5922.58     5569.42     4112.83     2662.59        1323     408.783     5.54111
  0.0730114      4.6707     27.0276     45.8155     69.4504     86.8537     100.323     96.5646     78.1579     41.3257     16.5322   0.0433489     22.7025     140.698      486.28     1511.51     6118.88      371322     9667.71     1445.07     317.377     55.1482    0.182254     18.7282     58.1386      93.567     107.892     115.257     101.579     79.6151     51.1237     22.7165       6.437  0.00398639     6.03102     23.6703     47.4832     71.6971     94.2887     104.524     105.308      83.804     52.6675     19.7567    0.321185     33.7108     201.264     774.616     3092.04       32634       32884     3097.73     781.077      208.81     35.5249   0.0131985     17.9738     53.0296       82.48     104.319     104.755     97.3223     73.8349      48.447     23.8011     6.13926   0.0365631     6.13863     23.7582     49.9255     80.7273     102.309      116.48      112.36     95.4737       58.63     23.9598   0.0298747     47.1386     299.957     1407.98     9646.88      375188     6045.14     1512.62     493.936     145.839     24.3233   0.0652811     14.7019     38.5506     72.2584     88.3738     100.678       91.77     70.2682     45.3081      21.041     6.32983    0.038893
  0.0429325     0.92938     4.99162     10.7552     16.6029     21.9404     24.0726     21.7691     17.4089     11.4777     4.02698   0.0151858     5.86305     33.2388     118.934     356.355     1504.84     89482.7     2326.19     346.375     76.3154     13.5653   0.0249881     4.46763     13.8775       22.03     26.6164     27.7811     25.4777     18.2303     12.6962     5.79181     1.83206  0.00400565     1.74252     6.08832     11.7236     17.6231     24.0886     26.0168     24.3163     20.4889     12.3878     4.60776   0.0215896     7.94533     50.4606     186.256     745.876     7883.05     7939.09     748.707     188.148     50.4158     8.62665   0.0210835     4.60219     12.7258      20.067     25.1426     26.0231     22.6695     17.4187     11.8643     5.75403     1.52278    0.030106     1.69472     5.86867     12.3373     18.8433       24.65     27.5938     26.2173     21.8517     14.9008     5.16011   0.0100613     12.6183     75.7292     342.956     2318.31     90563.1     1512.62     353.931     121.333     34.9577     6.00803    0.037157     3.70616     10.8956     18.8307     22.1505     24.3381     22.5175     16.4574     11.6326     5.72977     1.62548   0.0320102
 0.00577584    0.358164       1.693     3.50468     5.06636     7.62115     7.10704     7.26024     6.71832      3.5615     1.30625  0.00755378     1.51168      11.178     38.0034     120.519     489.159     29455.8     769.522      113.19     25.9451     4.53956   0.0163781     1.62105     4.38567      7.7044     8.93473     9.25163     8.37225     6.15142     4.03693     1.70549    0.606275  0.00916034    0.620713     2.09771       3.975     5.85821     7.14826     8.52525     8.28942     6.88592     4.31935     1.62703  0.00583697     2.90787      16.266     61.9297     244.304     2588.98     2605.82     246.599      62.774     16.7149     3.04832  0.00467017      1.5897     4.28337     6.52922     8.19883     8.81404     7.79113     5.43702     3.67936     1.83035     0.58308   0.0106158    0.529482     2.02973     4.02786     6.26714     7.73865     9.15423     9.02408     7.63761     4.56426     1.70768   0.0100588     3.90493      25.086     112.419     766.026     29756.6     493.935     121.333     40.4738     11.6765     2.23426   0.0428883    0.850709     4.12717     5.23382     7.58318     7.52191     7.59969     5.45076     3.49083     1.57314    0.493336   0.0119043
    0.02748    0.267196    0.402971       1.234     1.63488     1.99881     2.41852     2.24511     1.36085     1.22783     0.41317  0.00684124    0.694917     3.41556     11.2675     34.2833     144.604     8762.23      225.42     33.5018     7.43789    0.795074   0.0155374     0.52502     1.21712     2.22655     2.63439     2.71196     2.24335     1.94401     1.25848    0.474392    0.127351   0.0036766   0.0623293    0.577106     1.08486     1.69914     1.99975     2.40609     2.47544     1.97571     1.19111    0.438836   0.0287833    0.753482     4.95339     18.3986     74.3381     772.428     774.795     72.9103     18.8976     4.93283    0.826889   0.0232364    0.457026     1.41503     1.93328     2.42002      2.6774     2.32044     1.97339     1.27137    0.467326   0.0981977  0.00156898    0.194379    0.727583     1.21409     2.19396     2.41053      2.7134     2.78151     2.00498     1.54348    0.438985  0.00809773     1.08074     6.84428      33.003     222.091     8849.43     145.839     34.9577     11.6765     3.31289    0.656283  0.00571162    0.388715    0.905762     1.96022     2.24667     2.65196     2.00737     1.80627    0.886756    0.495325    0.256168  0.00731128
  0.0238533   0.0760723   0.0771522    0.188174    0.292199    0.306392    0.412686    0.312299    0.206947    0.122897    0.153632   0.0119957   0.0482578    0.673375     1.89338     5.83087     24.8508     1452.24     37.0589     5.63225     1.16424    0.115526   0.0158693   0.0760758    0.208969     0.47348    0.445314    0.430554    0.436955    0.334176    0.292864   0.0487023   0.0783604  0.00275333  0.00975857   0.0917085    0.195969    0.242741    0.358069    0.361593    0.462857    0.321836    0.280173   0.0726091   0.0128055     0.13048    0.762432     2.68049     11.9464     127.654      127.88     11.9307      3.0833    0.811795     0.10056 0.000290853   0.0964571    0.232052    0.403343    0.451615    0.435799    0.272253    0.237962    0.187834     0.11251   0.0119174   0.0123596   0.0346471   0.0988136    0.240774    0.320459     0.39085    0.459531    0.376495     0.41416     0.25044    0.183139  0.00164952    0.199891     1.24227     5.36775     37.4082     1469.65     24.3232       6.008     2.23423    0.656269    0.111931  0.00542707   0.0709088    0.197402    0.516141    0.499237    0.473049     0.38063    0.317308    0.101048     0.13056   0.0382859   0.0112659
 0.00387101   0.0533359  0.00695161    0.021534   0.0253038   0.0103349   0.0187815   0.0363014   0.0300151   0.0172537  0.00514725   0.0134782   0.0187358  0.00133513   0.0122082    0.048708   0.0210758     6.21833    0.188257  0.00278881   0.0206729  0.00336798  0.00514284  0.00408479  0.00971951   0.0138395  0.00111531   0.0133791  0.00510233    0.028974  0.00843684  0.00057227  0.00264192  0.00288822  0.00536145  0.00933774  0.00218908  0.00352171   0.0102516  0.00293959 5.08968e-06 0.000863094 0.000474735  0.00759139  0.00778297 0.000672737   0.0026722   0.0176708   0.0362032    0.581724    0.515097   0.0514903   0.0301458   0.0031914  0.00215081  0.00482001   0.0344257  0.00100582  0.00114296  0.00385871  0.00106598  0.00950904   0.0206813 0.000314589   0.0121513   0.0128014   0.0159109  0.00568884  0.00342977 5.37265e-05  0.00436907  0.00541991  0.00282835  0.00252784   0.0108674    0.022727 0.000767637   0.0019216    0.015913   0.0206352  0.00722602    0.307211     6.17147    0.065258   0.0371585   0.0428935  0.00571205  0.00542687    0.340728  0.00773877  0.00286879   0.0068823   0.0123503   0.0091693   0.0214973 0.000552523  0.00456849  0.00241686   0.0310683   0.0195144
   0.031953    0.017784    0.169535   0.0582399     0.36381     0.43978    0.271483    0.241083    0.219446    0.176396   0.0735332 0.000973266   0.0378232    0.272459     1.36536     3.86328      14.847     913.292     23.0308     3.65888    0.657188   0.0880861 0.000986229   0.0863483    0.198043    0.347152    0.338908    0.286388    0.243665    0.209943   0.0908688    0.122079  0.00205313   0.0135385    0.108267   0.0914487    0.142277    0.114769    0.267615    0.288415    0.294086    0.246742    0.202149   0.0333705 0.000410802   0.0827576    0.453152     1.90014     7.56756     80.1105     80.7806     7.23929     1.91472    0.520186   0.0838407 0.000261918    0.027265    0.131273    0.241362    0.200022    0.217451    0.281427    0.187841    0.100203    0.046829   0.0211562 0.000204173   0.0177793   0.0862346    0.162624    0.205602    0.236103    0.281579    0.200892    0.177956    0.199185   0.0611499   0.0109645    0.114027    0.857517     3.31409     23.7272     920.306     14.7021      3.7062    0.850716    0.388721     0.07091  0.00773871    0.122197   0.0201934   0.0962764    0.281594    0.274254    0.272923    0.240727    0.281364   0.0523897    0.142478   0.0237093
  0.0134879   0.0314422    0.460464    0.280316    0.535173    0.731813    0.799721     0.71797    0.812096    0.514295    0.173904 0.000390009    0.171566     1.40045     3.55042     11.7737     47.7862     2773.09     73.0042     11.3518      2.5617    0.283709  0.00854044   0.0646386    0.364011    0.535356    0.916506    0.717953    0.620531    0.542562    0.602767    0.129641   0.0583876  0.00664531   0.0246094    0.131173    0.268508    0.585214    0.633984    0.862638    0.790775    0.550162    0.409707    0.145695  0.00464025     0.30119     1.36419      6.0152     22.8329     243.579     246.406     23.0674     5.61467     1.67889    0.312735  0.00606341    0.151087    0.349423     0.64186    0.876934    0.974259    0.709185    0.689593    0.453466    0.141683    0.114575  0.00572848   0.0312166    0.175756    0.349274    0.452018    0.742293    0.894874     1.01157    0.679723    0.361796    0.806586   0.0661199    0.284347     2.23856     10.0726     74.5699     2785.87     38.5509     10.8956     4.12715    0.905755    0.197402  0.00286906   0.0201934     0.69105      0.7237    0.828173     0.62721    0.869951    0.429059    0.280713    0.544919   0.0241586  0.00487466
 0.00359331    0.137493    0.394046    0.307417    0.737511     1.52028     1.06326     1.44704     2.07399     0.66148   0.0685969  0.00559799    0.385723       1.694       6.406     18.9213     75.2378     4575.15     119.656     18.9189     3.91765    0.848048   0.0245188    0.277667    0.694752     1.19081     1.21438     1.35261     1.34029     1.06972    0.527161    0.341183   0.0445984  0.00462579     0.12499    0.255702    0.569247     0.86909      1.2261     1.37015     1.19564      1.1003    0.819918    0.310582  0.00575363    0.434365     2.48926     9.68555     38.1594     402.092     405.834     37.8323     9.43408      2.6762    0.488937   0.0059142    0.281111     0.56735     1.20849     1.33099     1.42306     1.25059     1.07968    0.691455    0.278038   0.0866634 5.13431e-05    0.166993     0.30695     1.03469    0.997163      1.4186     1.31949      1.3056     1.05771    0.682962    0.378189   0.0138224    0.117986     3.74254     17.2029     116.853     4625.69     72.2584     18.8308     5.23378      1.9602    0.516129  0.00688312   0.0962752      0.7237     1.97178     1.01114     1.17137     1.33842    0.729056    0.766005    0.198239    0.154961   0.0913368
  0.0341896   0.0881764    0.279572     0.72325    0.959601     1.20104     1.57424      0.7424     1.10359    0.971558     0.19146   0.0268049    0.332349     2.33258     7.59121     24.5835     91.1448     5653.26     150.563      20.736     4.87791    0.712295  0.00293132    0.346724    0.752702     1.74882     1.54277     1.99562     1.48661     1.04709    0.705044    0.589514    0.107415  0.00478101   0.0962026    0.261853    0.778732      1.1813     1.35114     1.67151      1.5272     1.12861     0.84535    0.292707   0.0136585    0.560125     3.34354     13.0667     47.0642     496.558     499.894     47.3502     12.2176      3.1814    0.487156   0.0107374    0.312119    0.952471     1.29868     1.39635     1.55347     1.45918    0.885703    0.763599    0.338617    0.202222  0.00389196    0.127171     0.37487    0.646836     1.58037     1.59715     1.79087     1.58246     1.49021    0.976623    0.377264   0.0130145    0.719343     4.47456     21.8913     151.691     5725.77     88.3744     22.1506     7.58313     2.24666    0.499237   0.0123503    0.281595    0.828173     1.01114    0.471867     1.94161     1.47358     1.43782     0.63348    0.620874   0.0515426   0.0130204
 0.00739337   0.0283173    0.261739    0.467481     1.12745     1.63561   0.0962695      1.3467     1.56474    0.786594    0.288521   0.0315537    0.426771     2.51664     8.09113     23.9467     105.231      5845.5     156.436     23.0089     4.98709     1.16341   0.0134423    0.269485    0.988225     1.49237     1.46951     1.63292     1.52622     1.32507    0.794186    0.372322   0.0626996  0.00020883    0.131847    0.490101    0.849211    0.992402     1.43407     1.94543     1.74503     1.29379     0.83947    0.237988   0.0214472    0.565156     3.02876     13.1948     48.9573     513.392     515.557     48.2906     12.2701      3.2279    0.584697 0.000446412    0.197373    0.654553     1.16463     1.62665     1.60726     1.38691     1.15873    0.730456     0.46446   0.0251274 9.40194e-05   0.0757784    0.452942    0.818375    0.954246     1.58799     1.87428     1.81988     1.95237    0.954813     0.27678    0.010491    0.821337     4.51963      23.571     154.336     5922.59     100.679     24.3382     7.52193     2.65198    0.473049  0.00916898    0.274255    0.627216     1.17137     1.94161     1.31277     1.61411    0.780562       0.603    0.462474   0.0827401   0.0177047
  0.0035635    0.207701    0.371475    0.515162    0.990627     2.01433      1.6356     1.51092     1.12933    0.610954    0.285003  0.00217451    0.349563     2.27422     7.41005     21.9563     93.1198     5517.25     143.715     22.5653     4.60161    0.939897   0.0387469     0.32929    0.912529     1.40076     1.56206     1.69383     1.55701     1.22942    0.738045    0.225543   0.0970543  0.00195213   0.0750599    0.333218    0.730083     1.02065     1.48573     1.53202     1.64287     1.27028    0.837219    0.291775  0.00328846    0.581776     3.09757     10.7525     45.1312     485.074     486.907      46.951     11.7897     3.31971    0.685759  0.00147267    0.266773    0.703638     1.16012     1.46397     1.64046     1.39294     1.29144    0.780308    0.420999     0.15863   0.0042159    0.079395    0.305632    0.679884     1.07868     1.40596     1.40326     1.77768     1.48627    0.894185    0.285917  0.00650661    0.892164     4.53205     21.0801     142.322     5569.44     91.7697     22.5175     7.59964     2.00738    0.380627    0.021498    0.272923    0.869964     1.33842     1.47358     1.61411     1.34658    0.798068    0.530936    0.300334    0.060575   0.0122761
0.000486148   0.0656966    0.174026     0.58588    0.938089    0.990633     1.12745     1.03174    0.930812    0.765065    0.133548   0.0145839    0.320226     1.59327     5.42536     16.3059     68.9755     4059.88     103.666     15.8281     3.27572    0.760361  0.00247188    0.195824    0.644044     1.04397     0.94559     1.34269     1.16637    0.665334    0.710944    0.259791   0.0204202 0.000806807    0.120173    0.180077    0.575109    0.711937     1.10639     1.27677     1.20517     0.89632     0.49841    0.214319  0.00226865    0.370248     2.29872     9.12085     34.3345     359.547     365.573     34.0665      8.3988     2.25797    0.405684  0.00112478    0.226889    0.480434    0.752276    0.945877     1.25649    0.919782    0.798764    0.486162    0.217164   0.0542763 0.000563576   0.0660112    0.132602    0.740456    0.875601    0.970853     1.19948     1.14181     1.05587    0.696632    0.194907   0.0193059    0.572763     3.51879     15.3464     102.825     4112.84     70.2684     16.4574     5.45075     1.80627    0.317311 0.000552645    0.240724    0.429065    0.729057     1.43783    0.780559    0.798063    0.340905     0.44791    0.159733    0.146313   0.0220832
  0.0344536   0.0245358    0.202248    0.384572    0.585878    0.515163    0.467482    0.830875    0.415547    0.321876   0.0202826   0.0104334    0.203257    0.957307     3.37522     10.5914     42.9342     2633.28     68.6834     10.7848      1.8814    0.443823   0.0359082     0.12645    0.286385    0.828784    0.621493    0.997141    0.580401    0.681247    0.285519   0.0992803   0.0675132  0.00654539    0.042499    0.120201    0.324294    0.420551    0.670645    0.830595    0.759735     0.66508    0.471411    0.104271   0.0305382     0.28714     1.41201      5.7293     21.5266     231.146     234.257     22.7948     5.70666     1.62266    0.209206  0.00685523    0.114526    0.384492    0.572267    0.714045    0.797532    0.602702    0.534204     0.34509    0.179599 0.000967657  0.00180349    0.086669   0.0990434    0.481419    0.621776     0.76392    0.448655    0.828668    0.571049    0.375058    0.187946   0.0175469    0.311649     2.88269     10.0963     69.2391     2662.58      45.308     11.6327     3.49084    0.886753    0.101045  0.00456887    0.281362    0.280712    0.766007    0.633482    0.603002    0.530931     0.44791    0.111704    0.100938   0.0298041   0.0323149
  0.0332677   0.0485126    0.362453    0.117758    0.250252    0.317816    0.264074    0.364737    0.594095     1.07547    0.121387  0.00234597    0.109093    0.521494     1.59401     5.41076     26.8666     1315.79     34.2146     5.28009     1.22346    0.280164    0.070622   0.0398977    0.160557    0.278483    0.345334    0.393169    0.345093    0.331376    0.174737    0.173719  0.00883728  0.00476513   0.0855486   0.0994455    0.161871    0.254582    0.398663    0.242837    0.387305     0.39134    0.189694   0.0187692  0.00124237    0.118966    0.705268     3.02781     10.7413     115.874     116.021     11.0723     2.74077    0.673336    0.090399  0.00272069   0.0996261    0.195814     0.26524    0.402188    0.283703    0.404752    0.501293    0.160948    0.112855  0.00678629   0.0394215   0.0881658    0.177929    0.159241    0.231211     0.35982    0.385677    0.587993     0.28964    0.238423    0.189817   0.0158993    0.321159     1.17291     5.08132     36.0332     1322.99     21.0411     5.72972     1.57313    0.495331    0.130559  0.00241661   0.0523887    0.544916    0.198241    0.620878    0.462473    0.300333    0.159731    0.100937    0.321583  0.00946642  0.00401141
 0.00683846    0.100613   0.0308812   0.0403476   0.0824907   0.0937133   0.0483979   0.0818167    0.114026   0.0605511   0.0142481   0.0360752    0.044431    0.195978    0.381578      1.6298     7.06256     401.064     10.5764     1.33507      0.3322   0.0155979  0.00525193   0.0215822   0.0613194   0.0942666   0.0759553    0.179681    0.222867   0.0842196   0.0318317   0.0273997  0.00810158  0.00378744   0.0146647   0.0853736   0.0634651   0.0798419   0.0831822   0.0950291   0.0819175   0.0908608   0.0191128   0.0404213   0.0105934   0.0653436    0.185529     1.29095      3.4159     35.5738     36.3182     3.47882    0.877645    0.196102   0.0388821  0.00616519  0.00909732   0.0438304   0.0730354   0.0774609   0.0818174   0.0914869    0.037716   0.0688007   0.0165041   0.0190046  0.00713591   0.0358651   0.0325948   0.0809364   0.0872696   0.0575967     0.12737    0.247665    0.188865    0.170918   0.0360445  0.00547837   0.0479524    0.333651     1.52925     10.8212     408.782     6.32981     1.62551     0.49333    0.256163   0.0382866   0.0310683    0.142478   0.0241586    0.154965   0.0515444   0.0827408   0.0605767    0.146313   0.0298042  0.00946672    0.315229   0.0031782
  0.0600978   0.0283028    0.014628   0.0344534 0.000486151  0.00356363  0.00739365  0.00233281   0.0823917   0.0167812 0.000572382   0.0032442  0.00966623   0.0202963   0.0320193    0.051311    0.163178     5.58919    0.222624   0.0764291   0.0151835 0.000605664  0.00364521  0.00847409   0.0337131   0.0249894  0.00288999   0.0245774  0.00115672  0.00609724   0.0128615  0.00597595  0.00594977   0.0286595  0.00910151  0.00263593  0.00680821  0.00226628   0.0047351   0.0217737  0.00137414  0.00029293  0.00167703   0.0117897   0.0445267   0.0128691  0.00702438  0.00413251   0.0463069    0.509258     0.48207   0.0657723   0.0146912  0.00279596  0.00834338  0.00629089 0.000330994  0.00694738   0.0209935  0.00034066   0.0373833   0.0101416  0.00278376 0.000975625  0.00202491  0.00653171   0.0181356  0.00262305   0.0016346  0.00870895  0.00847362   0.0155848  0.00730656  0.00629453   0.0175867   0.0151474    0.028435   0.0438029  0.00582237  0.00150479   0.0545836    0.155664     5.54113   0.0388992   0.0320122   0.0119039  0.00731094   0.0112662   0.0195144   0.0237088  0.00487445   0.0913366   0.0130206   0.0177053   0.0122755   0.0220834   0.0323149  0.00401152  0.00317821   0.0193284
