wavelength: 632.8 R: 400 r0: 10 LinSpaced num:1000 100
    1681.07     129.003     16.5749     1.34587     2.36191     14.0244     25.6231     41.4606     51.1405     69.5169     97.7713     159.565     6656.96     18.9827     36.6669     47.0829     45.3737      42.304     38.0202     26.9805     15.9894     4.95313    0.925143     48.6218     1375.16     1771.74     284.085     112.183     48.7765     18.4061     3.97701   0.0115435      3.9946     20.5281     63.2543       156.4     652.077 1.73533e+06     297.005     28.5004    0.629565     2.64017     13.7502     22.8069     36.1856     47.1421     57.4647     62.7041     67.4055     70.5087      72.858     68.8621     63.0642     56.4094     45.4439     39.6605     22.8151     12.7916     3.73861    0.657953     28.4562     302.397 1.73667e+06      643.21     173.684     57.4342     20.9245     4.19084  0.00689778     4.88331     18.6271      53.733     112.918     276.564     1779.57     1372.29     48.8529    0.773812     3.87368      16.887     29.3505     33.2894     41.0783     47.8231     45.0418     38.6559      19.113     6683.58     162.696     98.6283     77.3838      64.916     42.7237     27.0038     15.1414     2.62019     1.51498     18.5117     121.305     1710.38
    129.002     3.08588      1.2431   0.0513001    0.414529    0.331788     2.19856     3.76226     5.65754      6.8788     8.38279     14.9118     544.856     1.41605     4.17184     4.01754     4.34391     3.78093      3.6865     2.81427     1.47822    0.538582   0.0417524     3.78382     112.378     147.976     25.2358     8.78573     4.81799     1.79208    0.498063   0.0344266    0.315948      1.5925     4.79812     15.1103     52.3713      143921     25.1597     2.87413   0.0862625    0.245615     1.05269     1.94769     2.86834     3.87695     4.36584     5.44543     5.81894     5.70804     5.74247     5.55654     5.14033       4.307     3.56978      2.9066     1.80336    0.926163    0.189526    0.134754     3.10053     25.7221      143824     53.5783     10.7143     3.88937     1.33691    0.107685   0.0394955    0.506023     2.21267     4.45137     8.56814     25.8217     148.599     112.832     3.92355   0.0348146    0.850213     1.34665       2.606     3.40199     4.09379     4.36814     4.73452     3.53226     1.70704     544.758     14.9918     8.95699     6.06325     4.97614     3.90728     2.90032     1.45615     0.43536   0.0415165     1.41672     7.49987     128.351
    16.5753      1.2431    0.404327   0.0105163   0.0201999    0.244285    0.470721    0.734464    0.878634    0.958285     1.22382     3.36534     77.2056     0.24861    0.725648    0.711888    0.716099    0.683289    0.432591     0.35049    0.351761   0.0308304  0.00471049    0.428783     16.1438     22.1214     3.60678      1.2816    0.509278    0.328914    0.182374   0.0111095   0.0538451    0.138695     1.13354      2.9502     6.59999     20622.5     3.57299    0.474791   0.0471565   0.0244184    0.177052    0.245357    0.401063    0.502799    0.586868    0.788306    0.924916    0.801673    0.920754    0.746755    0.774545    0.553597    0.460334    0.250317    0.208493   0.0779907   0.0133328    0.159041    0.430666     3.96808     20621.7     6.94834     1.07458     1.25966    0.070291   0.0515637  0.00543509    0.158627    0.338803    0.976122     1.28611     3.92978     22.2882      14.818    0.374792  0.00325185   0.0847289    0.279533    0.517863    0.577055    0.719571    0.728357    0.660631    0.520058    0.568905     78.6873     2.16638     1.62149     1.15985     1.04483    0.707159    0.504794    0.422185   0.0535579    0.259689    0.140016     1.38488      16.724
    1.34626   0.0513218   0.0105161     6.71239   0.0254035   0.0307753   0.0307201   0.0175239     1.19519   0.0740823   0.0324089   0.0868111     2.11828     0.12492   0.0183063    0.196472   0.0479545   0.0018164    0.291134   0.0612219   0.0135632   0.0162067   0.0932743   0.0147303    0.236579    0.357181    0.932176   0.0479677   0.0725258   0.0630883  0.00777799  0.00752035   0.0621129   0.0260906     3.30062    0.458365    0.140507     445.544    0.125016   0.0354507  0.00632281   0.0697263   0.0120499    0.066223    0.011104   0.0137762   0.0122124  0.00815559  0.00382151  0.00332815    0.014896  0.00978079   0.0255742   0.0122879    0.083137   0.0232147   0.0655192   0.0176693   0.0346043  0.00919777   0.0179987    0.299682      447.65   0.0946354     0.10763   0.0500863   0.0110219   0.0471188  0.00410586     0.11989   0.0123541   0.0696432    0.500585    0.377858     1.02911      0.1916   0.0405879    0.257319   0.0472868    0.075549    0.122954    0.154696    0.090603   0.0167055   0.0952984   0.0715107    0.153978     1.77218    0.150703   0.0462512    0.450112   0.0232124  0.00660525    0.161881    0.051386    0.124264     4.28854    0.197787   0.0155004     1.51532
    2.36198    0.414564   0.0201826   0.0253937     3.42136    0.486747   0.0300411    0.123103    0.264853    0.148235    0.185239    0.358291     15.7615   0.0142938    0.026708  0.00803437   0.0648497   0.0277816    0.449445    0.104323   0.0187849   0.0702204  0.00641016    0.240237     3.63227     1.09708    0.620127   0.0959753   0.0910897   0.0185376  0.00140004   0.0156883    0.839228    0.129044    0.781062    0.761888     1.60665     3526.59    0.430725    0.130851   0.0286762   0.0534883   0.0443561    0.372324   0.0829483    0.275085     0.46005    0.179823    0.180505    0.135724    0.202847     0.12123     0.13998    0.314148   0.0450914    0.184757    0.138394    0.134807   0.0449905   0.0166896    0.345533    0.594139     3575.94      1.4401    0.446836    0.667175    0.249955     1.27419   0.0457604    0.047745   0.0198744   0.0179148    0.062022    0.353695    0.634059     2.81364     0.12732   0.0787829    0.090792   0.0276167  0.00613659     1.50917   0.0507727   0.0186682   0.0144959   0.0529975   0.0105614     15.9633    0.664169   0.0885223    0.138757   0.0914963   0.0207806   0.0216133    0.202206     7.39191    0.124274    0.194881    0.529039     2.61994
    14.0241    0.331876    0.244266   0.0307746    0.486744     26.9678    0.378747    0.499555     1.16801    0.566771    0.597665     1.92932     54.7058    0.260744    0.169865   0.0874621    0.667213    0.629399    0.639655    0.264137   0.0674502    0.073596    0.198376     0.71775     13.3247     13.6052     1.64661    0.736053    0.245799    0.029132  0.00395844    0.370626    0.080435    0.352533    0.432213     2.23148     5.77994     14465.3     2.58577   0.0780194   0.0502745   0.0591389    0.249113   0.0989363    0.298164    0.569008    0.544507    0.616454    0.740081    0.609315    0.658666    0.626956    0.753461    0.465961    0.561755    0.299869    0.292712    0.310235    0.145092   0.0378536     0.20231     2.33515     14534.5     6.19061      2.0745    0.534496    0.487538   0.0764965    0.177173   0.0176792   0.0437334    0.139966    0.537503     1.50042     14.3719      12.561    0.512366   0.0680937   0.0804232    0.129125    0.162586    0.624043    0.156476    0.225438     1.05921    0.132489    0.105385     54.5944     1.03345    0.449427    0.345948    0.317793    0.125854   0.0543277     2.19884    0.202195   0.0513813     0.12535     1.16423     15.1409
    25.6246     2.19864    0.470657   0.0307131    0.030039    0.378736     3.23038    0.616655    0.249064     1.20814     1.30416     2.61526     110.021    0.215939     0.59433     0.78433    0.512047    0.459581    0.377652    0.205667    0.260871   0.0335767   0.0991072    0.961946     23.2831     29.9953     2.40515      2.1638    0.737142     0.35016   0.0219814   0.0312237    0.157848    0.435001     1.47703     11.0379     12.3749     28437.2     4.90388    0.399772  0.00138939   0.0800233    0.191833    0.392439    0.564972    0.912545     1.05682    0.976799     1.03742     1.22153      1.5025     0.96827     1.17874     1.09698    0.713879    0.946593    0.544515    0.280354   0.0961883  0.00330967    0.456427     4.65195     28402.1     11.0906     8.49516      1.3447     0.44364    0.157391   0.0143628   0.0686735    0.262999    0.752356     1.95676     2.98822     28.1316     23.0218    0.962672    0.102682  0.00164595    0.148025    0.901216    0.504713    0.274329    0.460447    0.548367    0.332321    0.232803      111.81     2.52033     1.53376     1.32836    0.475084    0.292663     13.6284   0.0543242   0.0216182    0.161857    0.359175     2.48393     27.0024
    41.4613     3.76224    0.734268   0.0175148    0.123106    0.499558    0.616654     1.20269     1.18636     2.69455     2.45254     3.96986      172.75    0.385904     1.02104     1.60352      1.4241     1.37236    0.713432    0.892912    0.304775   0.0391121   0.0108869     1.46416     35.2585     46.7361     6.72699     2.94217    0.851903    0.351408   0.0979687   0.0134403     0.14181    0.730677     1.92691     5.23431     18.2848     46075.9     7.40523    0.661168  0.00887805   0.0921835    0.335986    0.679168     1.07565     1.39129     1.54454       1.555     1.82917      1.9223     1.96808      1.8858     1.48554     1.50273     1.75755    0.988197    0.821727    0.290203      0.1475  0.00277335    0.640161     6.07617     46038.8     19.5248     5.17553     1.82633    0.696937    0.200628   0.0291174   0.0520495    0.341326    0.925174     2.54194     5.76278     45.4594     38.6754     1.79865   0.0494127    0.129052     0.21326    0.547597    0.673871       1.008    0.887695     1.13292    0.918388    0.436126      176.13     3.78578     2.40762     1.63731    0.814507     3.29491    0.332958    0.215211    0.037551   0.0986896    0.811206     3.73629      44.275
    51.1356     5.65769    0.878602     1.19516    0.264859     1.16791     0.24907     1.18644     3.82436     3.53044     3.17999     6.30635      253.54    0.409442      1.3765     1.34887     1.55833     1.13548     1.32342    0.690497    0.564115    0.129592   0.0843341     2.39602     51.1289     63.8104     13.8719     3.11164     1.11275    0.368451    0.080087   0.0137163    0.353533    0.955443     2.92351     6.78255     24.0108     62912.4     9.52744    0.826068   0.0350753    0.142089    0.341585    0.935719     1.16047      1.6259     2.58288      2.5562     2.86142     2.46481     2.79777     2.65285     2.44234     2.10895     2.14198     1.60999    0.833016    0.653219    0.335211   0.0424244     1.01934     10.6498     62966.5     25.1751     7.95171     2.61417     1.09128    0.510406   0.0485137   0.0846255    0.260614     1.78251     4.13449     10.0548     64.4254     49.7442     1.85872   0.0472826   0.0815852    0.560465    0.746085    0.805696     1.03384     1.30383     1.70979    0.914067    0.713371     259.381     6.23487       2.805     2.91775     4.80661     1.15421    0.630792    0.315603   0.0788738     1.65081     1.09228     5.80501     53.9879
    69.5135     6.87896    0.958315    0.074078    0.148218    0.566821     1.20818      2.6947     3.53043     4.55897     5.12727     7.30529     319.715     1.00486     1.51335      1.9909     2.20955     1.66773     2.17089    0.710403     0.68813   0.0684781   0.0526736     2.87855     70.9612     84.6256     11.6104     4.80277     2.03458    0.771207    0.191641  0.00792341    0.271348     1.38982     3.21563     9.60356     31.3385     85097.2     13.8612     1.14043   0.0278079    0.326259    0.910852     1.43074     1.99203     2.03502     2.77321     3.18161     3.64234     3.51182     3.60821     3.39225     3.16162      2.6914     1.39689     1.79804     1.62551    0.750662    0.205309    0.123957      1.2262     13.3648     85062.6     27.3189     8.16012     3.61145     1.09807    0.483249   0.0148827    0.181364    0.812014     2.05163     4.60326     12.5525     83.1226     67.7566      2.8682   0.0316786    0.320439    0.579533     1.43637     2.79121     2.28056     2.22069     2.09401     1.95993    0.952581     331.332     10.5661     5.39569     23.4958     2.78075     1.73965     1.38924    0.708935   0.0468153    0.108678     1.24111     5.66299     65.0465
    97.7742     8.38157     1.22389   0.0324054    0.185256    0.597655     1.30409     2.45272     3.17998     5.12718     7.93469     8.66285     431.574    0.961451     2.43204     2.66806     3.10145     2.68883     2.19241     1.75689    0.830699    0.220725    0.102379     4.08503     90.9327     111.588     18.1819     6.20023     2.83001     1.03056    0.130014  0.00549714    0.399749     1.60663     5.19577     12.1853     42.2067      111994     18.7669     1.54546   0.0636772    0.318664     1.00844     1.69149     2.46446     3.26866     3.81069     4.24868     4.59786     4.72792     4.64293     4.61967     4.21935     3.81608     3.50351     2.51825     1.68007     1.20354    0.325257  0.00338689     1.69127      18.299      112002     43.0302     9.92672     4.13969     1.92791    0.522846   0.0276294    0.204369    0.989272     2.55841      5.9606     16.8092     111.009     91.0151     4.02807    0.115318    0.184411    0.795358     1.20982      2.3535     2.23344     2.59369     2.92563     2.23552    0.844279     441.094     8.90685     3.14097     4.63074     3.75385     2.14444     1.45933    0.929161    0.166484    0.150989     1.22934     8.32755     97.3148
    159.551     14.9114     3.36515   0.0868362    0.358262     1.92961     2.61539     3.97035      6.3066     7.30581     8.66127     45.1335      718.63     1.84076      4.0187     4.35341     4.80366     3.70889     1.59921     3.46243     1.59153    0.937556    0.105657     6.31497     141.141     167.398     28.6671     10.2283     4.31895     1.47432    0.479804   0.0200058     1.86248     2.77056     6.09201     19.4102     69.8754      185744     31.0819     2.02632   0.0429499    0.504716     1.81907     2.89384     4.67592     5.77211     6.72811     7.04264     7.73272     7.66391     7.80907     7.31282       6.954     7.01029     5.14908     4.50945     3.05949     1.71047    0.476879   0.0558674     1.58461     30.5635      185739     69.1867     19.2108     7.02033      2.3839     2.41056   0.0518012    0.300176     1.64017     4.67241     9.92814     26.3715     164.089     145.109     5.79902   0.0402983    0.243152     1.17237     1.68927    0.720435     4.33399     3.88798      4.7328     4.73987      1.6894     726.418      12.778     9.14556     8.51048     4.98535     4.29282     2.51445    0.326915    0.216307     0.06096     2.46923     15.1271     158.004
    6655.13     544.819     77.2075     2.10964     15.7725     54.7404     110.092     172.764     253.638     319.875     431.621     718.706     28474.3     77.3287     165.399     198.315     206.622     182.567     159.402     117.383     67.6204     20.6505     4.33268     218.999     5981.17     7606.41     1184.03     469.623     192.604     84.6533     14.8541    0.772745      20.105     89.1706     259.211     676.007     2791.03 7.48467e+06     1264.15     123.573     3.58692     15.5307     60.2447     112.023     172.412     204.762     239.757     275.785     298.616     300.216     310.116     299.461     287.239     237.834     196.863     158.514     109.449     64.9064     14.3772     3.59154     125.598     1276.45  7.4891e+06     2780.24     707.612     263.462     94.0829     19.3722 0.000928919     18.4992     87.0109     212.849     454.166     1189.08     7609.68     5988.11     215.151     4.55348      17.137     68.6811     115.945     159.367     188.263     206.606     203.217     169.611      73.259     28937.1     720.932     434.795      331.17     243.261     178.005     110.244     55.4218     16.3979     1.75663     76.2127     534.713     6635.44
    18.9788     1.41597    0.248636    0.124921   0.0142955    0.260863    0.215989    0.385918     0.40958     1.00474    0.961331     1.84079     77.3403     1.21525    0.302017    0.460991    0.447067    0.499179    0.389365    0.182632   0.0561474   0.0296278    0.072208    0.877711     16.9338      19.734     2.36892     1.17525    0.466005    0.138417   0.0190483   0.0206722      0.1315    0.397717     0.81974     1.12576     8.10946     19347.6     3.15729    0.216401   0.0137089   0.0711271    0.198222    0.319211    0.510653    0.725566    0.761952    0.824791    0.750109    0.843509    0.893834    0.874605    0.826502    0.706098    0.573095    0.446412    0.509296    0.136526   0.0946717  0.00341831    0.218392     2.86425     19373.7     8.52873     2.62121    0.741537    0.473049   0.0548872  0.00699125  0.00321325   0.0982222    0.222555    0.456757     2.79786     17.5016      16.886    0.772706    0.233718  0.00166926   0.0830697    0.124031    0.498416     0.47755    0.376275    0.331847    0.276436    0.629578     79.8628     1.61097    0.827656    0.798585    0.341739    0.445457    0.198207   0.0315078   0.0360454    0.107011    0.329704     2.09086     20.5111
    36.6689     4.17169    0.725518   0.0183144   0.0267386    0.169887    0.594366     1.02106     1.37664     1.51325     2.43183     4.01876     165.368     0.30197     9.66549     0.72536     1.23153    0.928613     1.45846    0.429643    0.189262   0.0538682   0.0379096     1.67675     35.8301     42.7745     5.84063     2.50752     1.06501     0.35195   0.0777352   0.0580785    0.106419    0.561367     1.93973     4.94199     16.5992     43129.6     6.54533    0.472565   0.0056969    0.101631    0.372492    0.677747    0.826311     1.29043     1.48772     1.99232     1.95391     1.78688      1.9065     1.73323      1.8504     1.44709     1.28668     1.17971     0.85892    0.456964   0.0454969   0.0523413    0.620109     6.81716     43120.6     16.5188     4.93068     1.88381    0.742667    0.222202    0.035465   0.0652935    0.285879    0.773622     1.91738     6.14355     42.2986      35.998     1.34498    0.180903    0.177307    0.194891    0.288066    0.757251    0.917102    0.856692    0.953142     4.50476    0.346762     170.255     4.39187     2.36755     1.52849     1.05629     1.00241    0.330753    0.113618   0.0127778   0.0362942    0.597673      3.4769     39.7006
    47.0898     4.01725    0.711845    0.196469   0.0080324   0.0874473     0.78429     1.60352     1.34887     1.99071       2.668     4.35381      198.22    0.461232     0.72525    0.709257     1.25855     1.02829     1.02837    0.385124    0.310752   0.0543853    0.083772      1.9156     43.7141     50.7705     8.46908     2.99382     1.18453    0.532728   0.0999854 0.000579717    0.268982    0.831299     1.66222     6.29796     20.2174     51901.5     8.05229    0.727329   0.0026762    0.122953    0.439415    0.892428     1.27619     1.57937     1.73022     1.72516     2.04974     2.25602     2.41037     2.19858     1.88759     1.72515     1.50149     1.49155     0.70499    0.405192    0.130556   0.0026866    0.737973     7.37009     51890.9     19.5548     4.61299     2.22353    0.783316    0.226183   0.0192621   0.0837448     0.35605    0.953877     3.11946     7.48361     50.5789     42.0521      1.8319    0.283701   0.0940759    0.409441    0.391244     1.13955    0.802953     1.01022     2.38495     1.41016    0.470517     200.754     3.97037     2.43703     2.77661      1.3584     1.21655    0.614156    0.469736   0.0161695     0.21827    0.794381     4.28683     48.2474
    45.3755      4.3435    0.716001   0.0479494   0.0648363    0.667106    0.512034     1.42397     1.55822     2.20946      3.1015     4.80328     206.608    0.447142      1.2317     1.25862    0.634934     1.06863       1.015    0.649147    0.293146   0.0550995     0.05033       1.744     44.5012     52.1766     7.77172      2.8744     1.25664    0.445443    0.110756   0.0111208    0.294248    0.742126     2.04902     6.11151     19.5134       52946     8.40185    0.781936  0.00310695    0.153089    0.492219    0.803963     1.30482     1.52054     1.79035     2.00278     2.23123     2.11424     2.26436     2.28576     2.05075      1.8448     1.76592     1.09631    0.949486    0.456408    0.141252   0.0132549    0.774376     8.93611     52980.2     20.5667     5.52225     1.96456    0.840383    0.248445   0.0501097    0.048614    0.372838     1.28227     2.85956     8.04462      51.736     43.4573     1.77594   0.0804584    0.085445    0.323574     0.51186    0.893207     1.02295     1.05926     1.05734     1.03255    0.403741     214.245     3.92654     2.57081     1.82185     1.37407    0.943004    0.459937    0.444861   0.0437287   0.0491809    0.722895     4.28635     47.5026
     42.304     3.78129    0.683347  0.00181616   0.0277621    0.629352    0.459599     1.37233     1.13549     1.66763      2.6889     3.70889     182.555    0.499125    0.928535     1.02829     1.06866    0.564497      1.1073    0.592536    0.329299   0.0950036   0.0216854     1.47415     39.4415     49.4453      6.8646     2.98566     1.17318    0.444953   0.0683616   0.0206277    0.158434    0.766599     1.81743     6.16481     18.4295     48631.9     8.12154     0.76773  0.00345326    0.149853     0.37343    0.836561     1.14744     1.33003     1.52864     1.54486     1.98168     1.95548     2.23227     2.07239     1.63382     1.87995     1.43467     1.21642    0.794296    0.337856   0.0930579  0.00831941    0.720111     7.40444     48619.7     18.1422     4.61079     2.01011    0.728163     0.24108   0.0252392   0.0048305    0.340223     1.16599     2.61962     6.55576     47.4133     38.9536     1.65971  0.00881141   0.0427309    0.344829    0.505936    0.927478    0.311566     1.06118     1.34946    0.797562      0.3942     187.172     3.65307     2.35483     2.07807     1.20977     1.38367     0.21076    0.137217  0.00641712   0.0199222    0.746568     4.01338      43.559
    38.0241     3.68644    0.432589    0.291135    0.449417      0.6397    0.377673    0.713357      1.3234     2.17082     2.19244      1.5986     159.304    0.389237     1.45852     1.02844     1.01505     1.10716      1.1023    0.411152    0.222715    0.012397    0.191474     1.42853     33.9257     30.2194     6.73145     2.49665     1.13471    0.225967   0.0725254   0.0100604     1.01497    0.634375     1.27494     4.54349     15.2237     40652.4       6.168    0.344419   0.0163179   0.0602909    0.404161    0.715292    0.808148     1.00543     1.39032     1.36958     1.52397     1.65374     1.84921     1.60837      1.5951     1.49935    0.657804    0.973568    0.748462    0.278643    0.125643  0.00278695    0.312816       6.529     40697.8     14.3787     3.02591     1.79585     0.69167     1.08383   0.0504207   0.0735414     0.19538    0.783633     2.63584     5.54758     29.0645     33.9069     1.41861    0.174551    0.128724    0.246394    0.262577     1.12705     1.14733    0.880078    0.895655     1.14091    0.216487     158.287    0.932748     1.87758     2.86155     2.02406    0.655786     1.00322    0.194978    0.880917    0.447594    0.772406     3.79046     36.9574
    26.9803     2.81441    0.350471   0.0612311    0.104292    0.264139    0.205671    0.892967    0.690442    0.710463     1.75678     3.46245      117.41    0.182568     0.42964    0.385177    0.649177    0.592554     0.41111    0.208881    0.123904   0.0912772   0.0457192     1.62769     23.7721     28.8888      4.0223     2.06812    0.564105    0.228115   0.0528331   0.0198661    0.192621    0.445859     3.04575     2.95767     11.2762     29542.3     4.49753    0.302571   0.0025105   0.0852888    0.366085    0.769412    0.670342      1.0158    0.997603    0.916755     1.12486      1.1082     1.31357     1.20657     1.24896     1.14347    0.873989     1.00926    0.502058    0.303886   0.0922815   0.0171334    0.385802     5.31102     29563.1     11.0806     3.59704     2.35581    0.641559     0.25412   0.0270929   0.0375027    0.154246    0.422055      1.1706     5.15688     28.5847     25.5514     1.13417    0.190145   0.0172806   0.0961462    0.773078    0.428267    0.326944    0.672195    0.694428    0.349622    0.264161     115.978     1.98556     1.52654     1.15593    0.568674    0.410432    0.147996    0.148117    0.172668   0.0762031    0.495963     1.64806     27.0945
    15.9902     1.47824    0.351767   0.0135594    0.018788     0.06745    0.260848    0.304794    0.564045     0.68816    0.830724     1.59149     67.6032   0.0561424    0.189259     0.31075    0.293164     0.32932    0.222709     0.12387     1.21175  0.00371223   0.0296379    0.709955     14.0065     16.6649     1.91314     0.88356    0.329059   0.0575085   0.0121621   0.0126014   0.0991872    0.306878    0.778539     1.60926     7.51031     17018.5     2.63429    0.271956 0.000449434   0.0530067    0.160596    0.278082    0.468348    0.569806    0.572348    0.621691    0.738479    0.772902    0.790919    0.749691    0.733261    0.619252    0.564584    0.401118    0.311489    0.238515   0.0679976  0.00168811    0.178364     2.38778     17034.3     6.64134     2.24801    0.800992    0.395948    0.127181   0.0106539 4.63138e-05    0.106991    0.250388    0.696537     2.43648     15.6283     13.9921     0.66004   0.0729923  0.00632258    0.192515     0.28086    0.252612    0.363932    0.385531    0.326596    0.156286   0.0578736     68.9146     1.42123    0.653824    0.430591    0.381322    0.279819    0.190869   0.0854812  0.00322469    0.012551    0.405698     1.94224     16.6145
    4.95229    0.538665   0.0307943   0.0162002   0.0702293   0.0735989   0.0335773   0.0391122    0.129582   0.0684946    0.220663    0.937601     20.6236   0.0296624   0.0538528   0.0543871   0.0550996   0.0950136   0.0123886   0.0912762  0.00370751    0.634774  0.00840537    0.274303     4.47248     4.18619    0.621875    0.142891   0.0576471   0.0231542  0.00865487   0.0824637    0.178358    0.076185    0.271854    0.732965     1.73624      4455.7    0.659355     0.05368   0.0431194    0.022429   0.0101687   0.0878298     0.13651    0.137834    0.137351     0.12926    0.146555    0.242096     0.22932    0.159263    0.160922     0.11836    0.144325    0.128975     0.10442   0.0325007   0.0212535  0.00391789   0.0255925    0.637374      4449.6     1.96022    0.480758     0.22352    0.120512   0.0617215    0.158902 0.000203705  0.00361461   0.0835713    0.284383    0.558303     3.83158     3.81298    0.160401   0.0151264   0.0113615  0.00189593   0.0159741    0.150727    0.103727   0.0607655   0.0531868    0.107627   0.0172153     18.5831    0.355678     0.15582     0.22195   0.0748489   0.0760496    0.163957    0.150357   0.0614592   0.0429182    0.167187    0.519987     4.81114
   0.925724   0.0417433  0.00471336   0.0932697  0.00640335    0.198375   0.0991235    0.010878   0.0843477   0.0526996    0.102395    0.105584     4.33537   0.0722461   0.0378894   0.0837799   0.0503389   0.0216843    0.191451   0.0457032   0.0296466  0.00840426     1.47955  0.00691533      0.6371     1.56718    0.230289    0.181161   0.0901061    0.136378 0.000202112  0.00334291   0.0310309   0.0610933    0.021446   0.0770375     0.33005     1063.02    0.185031   0.0236083   0.0185439  0.00873633   0.0308774 5.52056e-05   0.0308735   0.0212826  0.00418376    0.089078   0.0363987   0.0561452   0.0430197   0.0415144   0.0348965   0.0259683    0.013185  0.00714886  0.00663006   0.0241798  0.00274604   0.0208397   0.0403222    0.237815     1072.72    0.354731    0.317007   0.0125354  0.00850107 0.000705669  0.00651201   0.0379609   0.0459939    0.170477    0.100193    0.211131      1.4021    0.886153   0.0131832   0.0446829  0.00749444   0.0262445    0.142781   0.0148008   0.0738027   0.0935097    0.109635     0.18146   0.0840724     4.99097   0.0819409    0.283471    0.125272     0.28865   0.0734444   0.0345905   0.0378044   0.0915394  0.00257315   0.0276782   0.0531356    0.366084
    48.6245     3.78403    0.428793   0.0147138    0.240207     0.71757    0.961785     1.46393     2.39614     2.87842     4.08446     6.31411     218.967    0.877798     1.67663     1.91568     1.74402     1.47398     1.42829     1.62767    0.709979    0.274198  0.00691237    0.869221     44.9918     60.1615     10.7937     3.88563     1.91465    0.873442    0.270163   0.0349568     0.07509    0.597595     1.80844     4.94311     20.8826     58498.7     9.98068     0.98301   0.0303988     0.14606     0.44284    0.783044      1.1606     1.50121     1.88905     2.06491     2.21773     2.18483     2.37124     2.18594     1.92693     1.83604     1.51875     1.11563    0.753574    0.363986   0.0757669   0.0355873     1.22054     10.9606     58499.3     20.6321      5.2114     1.62272    0.459315   0.0390675   0.0315388     0.32489    0.872072     2.16856     4.54092     10.6491     62.4731     44.7635     2.87096   0.0207309    0.212905    0.849359    0.978682     1.34499     1.88995     1.75744     2.20831     1.64789    0.966854     220.357     6.22871     3.58965     2.93368     2.70992      1.6367     1.19022    0.708982     0.22553   0.0103165    0.417343     3.33345     47.9889
     1375.2     112.379     16.1427    0.236493     3.63275      13.325     23.2855     35.2532     51.1319     70.9665     90.9268      141.14     5984.53      16.931     35.8291     43.7121     44.5031     39.4425     33.9264     23.7722     14.0055     4.47356     0.63723     44.9895     1258.02     1589.78     252.115     96.7773     44.6703     17.2709     4.31839   0.0523467     4.05925     18.5087     53.3261     143.131     578.479 1.56305e+06     265.503     25.3831    0.553579     3.59164     12.8693     22.4514     33.4635     43.6061     50.9005     56.5736     61.7743     63.3623     64.3064     62.3753     57.5114     51.1689     42.6829     33.0714     22.4813     12.2054     3.20129    0.646178     25.3976     268.899 1.56353e+06     580.269     145.073     53.9792     18.6318     3.68595    0.010414     4.57343     18.1427     45.4424     97.5622     248.963     1597.93     1235.74     45.1746    0.580872     3.96964     13.9984     25.3113     33.4009     41.8013     43.1318     41.7475     35.3602     16.6333     6008.22     160.193     88.7323     69.4496     54.4812      38.054      22.614     12.5178     2.68316    0.399684     14.4345      112.44     1376.28
    1771.75     147.972     22.1268    0.357271     1.09725     13.6052     29.9935     46.7372     63.8097     84.6283     111.588     167.395     7604.71     19.7379     42.7761     50.7717     52.1813     49.4434      30.214     28.8873     16.6623     4.18584     1.56774     60.1684     1589.79     1954.09     303.904     120.657     51.2503     19.7546     4.27252  0.00632594     7.46267     25.5773     70.6637     194.126     739.873 1.97639e+06     330.764     31.8031    0.646251     3.44936     15.6421     29.4631      43.617     54.3664     65.7535     73.3316     78.9735     81.1996      83.149      78.739     73.0379     65.6052     54.6556     42.3102     29.1781     15.9117     4.06452    0.607631     31.0961     333.469  1.9776e+06     743.467     189.933     72.8976     26.6066     7.87743   0.0222978     4.31016     19.9058     51.4753     117.654     311.026      1955.2     1569.65     60.2081     1.10399     4.07566     15.7976     28.3517     28.4535     48.4504     51.7576     51.9533      42.416     17.8595      7698.6     159.763     111.016     81.8862     60.3438     44.7867     27.5559     13.3386      1.1121    0.484335     21.8777     147.306     1763.76
    284.067     25.2358     3.60672    0.932075    0.620206     1.64677     2.40519     6.72702     13.8718     11.6099     18.1807      28.668     1183.99     2.36888     5.84056     8.46787     7.77117     6.86491     6.73126     4.02249     1.91331    0.621819    0.230227     10.7921     252.112     303.905     65.2011     15.8011     7.84813     3.08736     0.57302   0.0173198      1.0661     4.13564     11.3429     26.9356     116.473      308203      52.956      4.6859   0.0577127    0.697115     2.35411     4.50355     6.83295     8.90764     10.6264     10.6756     12.6922     12.7003     12.9273     12.0931     11.3435     10.3229     8.30375     6.65463     4.83608     2.53102    0.699329    0.088106     4.33313     51.9891      308324     116.989     29.1631     11.6199     4.12364      0.9929   0.0176612    0.692728     2.68447     8.53352      17.135     32.9321     302.992     248.907     9.71301    0.140202    0.653239     2.59221     3.89817     5.04062      7.6369     7.61425     8.03055     5.77432     2.59568     1202.33     27.9211     16.3115     12.1768     8.94727     5.97545     4.61891     1.39431    0.300302    0.629311     3.55633     25.2183     273.553
    112.184     8.78617     1.28163       0.048   0.0959597    0.736079     2.16376     2.94222     3.11155     4.80203      6.1997     10.2275     469.539      1.1749     2.50762     2.99386     2.87432     2.98589     2.49701     2.06807    0.883555    0.142869     0.18121     3.88603     96.7725     120.668     15.8018      6.5033     3.28725     1.00937    0.323256   0.0345048    0.350901     1.67167     4.35587     11.5647     43.3482      120109     20.9378      1.9145   0.0341438    0.389781     1.00443     1.71306     2.43546     2.69158     4.68598     4.34407     4.96378     5.05592     4.97548     4.74197     4.29411     3.62997     2.72478     2.20113     2.00087    0.797967    0.331567   0.0222293       1.957      19.969      120143     43.0924     13.3707     4.31982     1.52854    0.508682   0.0063369    0.217029     1.15467      3.1346     15.5259      13.578      120.89     94.3467     3.61474    0.141592    0.246792    0.947412     1.94672     1.88373     2.73886     2.62173     2.92551     2.29535    0.913943     463.748     11.0188     5.91739     5.51979     2.98022     2.15599       1.233    0.600587   0.0704633    0.242935     1.61771     10.3641     109.211
     48.776     4.81799    0.509341   0.0725218   0.0910584    0.245778    0.737179     0.85198     1.11278     2.03467     2.82985     4.31886     192.588    0.465962     1.06493     1.18456     1.25671     1.17324      1.1347    0.564054    0.329037   0.0576568    0.090119     1.91435     44.6662     51.2515     7.84784     3.28695    0.733249     0.36122   0.0846749   0.0209239    0.191237    0.842798     1.91047     4.50359     20.3688     52896.1     8.84953     0.84941  0.00133944    0.109958    0.418056    0.741542     1.23926     1.47517     1.81581     1.93752     2.11485     2.14575     2.29983     2.15455     1.95483     1.77408     1.37071     1.11454    0.894196    0.425112    0.107278  0.00995756    0.759989     8.64494     52928.3     20.3813     5.62508     2.32256    0.831143    0.259687   0.0215398     0.06204    0.384644   0.0453319       2.357     8.16752     50.3784      42.341     1.67446    0.081254   0.0314855    0.288474    0.521042    0.707622     1.07913     1.06472     1.27195    0.843469    0.306067     200.553     4.50098     2.49773     1.82152     1.76604     1.10496     0.47848    0.277483   0.0530292    0.102468    0.915221     3.88293      50.785
    18.4075     1.79212    0.328885   0.0631012   0.0185358   0.0291287    0.350098    0.351464    0.368446    0.771138     1.03053     1.47411     84.5844     0.13836    0.351916    0.532694    0.445466    0.444986    0.225959    0.228105   0.0575159   0.0231557    0.136344    0.873639     17.2719     19.7552     3.08744     1.00936      0.3612  0.00326591   0.0286054   0.0216691    0.159982    0.421138    0.769231     1.70546     8.07514     20967.6     3.59799    0.297467  0.00619621   0.0565538    0.157412    0.316414    0.464851    0.631983    0.809242    0.866217    0.959802    0.895318    0.911258    0.925603    0.824862    0.640297    0.619009    0.431436    0.308788    0.175291   0.0963494  0.00691116    0.240107     3.63526     20982.2     8.11819      2.5115     1.05801    0.520143    0.109494   0.0272483   0.0139634    0.114536     0.35852     1.02283     2.92906      19.912     16.9048     0.71199    0.100665  0.00646989    0.115673    0.160633    0.287389    0.400668    0.466224    0.402468    0.279688   0.0882985     86.5598     1.74453    0.754657    0.814753    0.200771    0.339005    0.125351    0.118207  0.00179678   0.0235291    0.408626     1.53717     20.1619
    3.97722    0.498093     0.18237  0.00777623   0.0013979  0.00395685   0.0219833   0.0979775   0.0801039     0.19164    0.130012    0.479547     14.8262   0.0190399   0.0777446   0.0999726    0.110738   0.0683602   0.0725249   0.0528408    0.012162  0.00865764 0.000204114    0.270161     4.31769      4.2727    0.573017    0.323267   0.0846912    0.028603    0.365982  0.00333762   0.0551508   0.0587915    0.157417    0.502545     1.72951     4704.04     0.74256   0.0820261  0.00227756  0.00908077   0.0421008    0.123489    0.167658    0.142219    0.175248    0.248628    0.205867    0.187169    0.163607    0.242708     0.18603    0.270545    0.132257    0.183549     0.12005   0.0684614    0.025102 7.14146e-05   0.0771009    0.767548      4717.5     1.77445     0.58519    0.155704    0.094365   0.0347291  0.00742621    0.748831   0.0159558   0.0617273    0.195639    0.503092     4.59586     4.02669    0.159249   0.0162184  0.00438157  0.00993948  0.00514203    0.026955   0.0318138   0.0459165   0.0848531   0.0508233   0.0176728     15.6551    0.238591    0.142604    0.129789   0.0244131   0.0135998   0.0254595   0.0802856   0.0104601  0.00115241    0.102937    0.462118     4.03999
  0.0115381   0.0344207   0.0111032   0.0075221   0.0156862    0.370592   0.0312271   0.0134379   0.0137142  0.00791906  0.00550141   0.0200221    0.771921   0.0206919   0.0580875 0.000579413   0.0111168    0.020618   0.0100652   0.0198682   0.0126038   0.0824608  0.00334697   0.0349983   0.0522653  0.00636743   0.0173135   0.0344915   0.0209237   0.0216652  0.00333565     1.26474   0.0077476    0.101765  0.00120177   0.0063478  0.00954393   0.0252549   0.0045794  0.00021386  0.00109319  0.00518836   0.0018087 0.000379856  0.00809621  0.00141284 0.000867532  0.00293567  0.00495249 0.000289687   0.0029724   0.0011006   0.0023517  0.00721646  0.00120934  0.00117611  0.00296302 0.000772792   0.0136917  0.00667687  0.00377369  0.00640845   0.0356326  0.00410699  0.00681945   0.0135944    0.196786  0.00745497    0.423787   0.0105743   0.0292081   0.0331277   0.0151962   0.0101669  0.00361962   0.0280877  0.00960257   0.0136468    0.142686   0.0380825  0.00633103   0.0217175   0.0101604   0.0138283   0.0169115    0.132945   0.0570574    0.910541  0.00075055   0.0458204 0.000520705   0.0236347    0.042246   0.0357405   0.0770778   0.0125269  0.00839062     0.01692 0.000623859   0.0284202
    3.99491     0.31591   0.0538452   0.0621198    0.839235   0.0804316    0.157875    0.141813    0.353524    0.271381    0.399804     1.86286     20.1087    0.131543    0.106397    0.268993    0.294251    0.158431     1.01507    0.192633   0.0991832    0.178368   0.0310233    0.075059     4.05931     7.46646     1.06599    0.350793    0.191255    0.159978   0.0551604  0.00775144   0.0837102     0.06077    0.111284    0.557049     1.86949     5464.54    0.981313    0.107363  0.00035159  0.00453775   0.0292897   0.0728581   0.0876252    0.115764    0.149181    0.315134    0.179646    0.191797    0.211721    0.208007    0.129408    0.146597    0.137784    0.106995   0.0658116   0.0212961 0.000429469  0.00266443    0.136156    0.964468     5478.33     1.84347    0.315426    0.167603   0.0137961    0.095448   0.0073436   0.0750732     0.11964    0.365355    0.386104    0.979494     7.80381     4.27462   0.0649186  0.00840741   0.0615251   0.0896326   0.0730696    0.886236     0.25325    0.237895    0.181037    0.165996   0.0981968     19.2156     2.59324    0.499343    0.391457     0.36735    0.245455    0.309072    0.169906    0.766386   0.0575818   0.0136245    0.180777     4.11121
    20.5206     1.59267    0.138701   0.0260847    0.129062    0.352559    0.434955    0.730705    0.955486     1.38981     1.60667     2.77074     89.2357    0.397675    0.561346    0.831276    0.742119     0.76654    0.634337    0.445903    0.306875   0.0761866   0.0610736    0.597539     18.5099      25.579     4.13555     1.67158    0.842741    0.421104    0.058767    0.101746   0.0607747    0.151126    0.983125     2.17984     8.99455     24698.2     4.42291    0.402303   0.0182859   0.0589179    0.178479    0.352098     0.84292    0.648482     0.79173    0.837344    0.965294    0.957493    0.927517    0.976974    0.815963     0.77312    0.620089    0.495711    0.300801    0.206338   0.0450503   0.0147875    0.500361     4.61471     24707.8     9.01547      1.9482    0.772883    0.280988   0.0423191  0.00649684   0.0740377    0.401611    0.870144     1.75336     4.68251     26.4022     18.8214    0.677512  0.00123388   0.0662959    0.347524    0.599443    0.626696    0.890917    0.844411     0.74736    0.660888    0.423023     91.1278     2.32461     1.73147     1.25839    0.886948    0.738268    0.488198    0.523765    0.150357   0.0422349    0.122175     1.67354     19.5797
    63.2518     4.79788     1.13364     3.30055    0.781058    0.432251      1.4771     1.92701     2.92339     3.21577     5.19562     6.09106     259.162    0.819828     1.93973     1.66208     2.04899     1.81754     1.27492       3.046    0.778582    0.271858   0.0214396     1.80824     53.3247     70.6579     11.3431     4.35582     1.91029    0.769322    0.157422  0.00120253     0.11126     0.98322     9.98246      6.0719     25.1441     69000.7     11.8112      1.1835   0.0444058    0.162065    0.612113     1.10756     1.43417      1.8971     2.18678     2.53196     2.71484      2.6835     2.80371     2.65059     2.58814     2.34076     1.83937     1.39768    0.996372    0.521912   0.0992055   0.0417512     1.31542     12.0322     69037.8     25.2876     7.39614    0.877337    0.665669     0.32658   0.0122285    0.337383    0.757959     2.25328     4.58616     11.3749     71.1077     55.8165     1.94451   0.0713457    0.162827    0.849651     4.49222     2.01965     2.18746     2.31809      1.9175     1.92427     1.31613     262.363     6.31255      4.3096     3.17241     2.29447      2.4343     1.77193    0.606241     1.40647     1.42174     1.29526     4.56096      60.073
    156.402     15.1116     2.95058    0.458371    0.761913     2.23123     11.0373     5.23395     6.78227     9.60352     12.1856     19.4094     676.067     1.12609     4.94214     6.29823      6.1114     6.16402     4.54329     2.95777     1.60936    0.732918    0.077089      4.9436     143.131      194.13     26.9373     11.5642     4.50344     1.70555    0.502581  0.00635177    0.557012      2.1798     6.07136     17.3698     67.8299      185117     31.6948     3.04472   0.0803676     0.37894     1.52472     2.80095     3.94162     4.92042     6.07059     6.90626     7.45848     7.46927     7.68475       7.372     6.55833     5.93123     5.04311      3.9022     2.67598     1.20766     0.31284    0.050706     3.07851     31.6695      185248     68.1613     19.0309     6.21765     2.29869    0.340921    0.006867    0.392668     2.60307     5.48763     12.4418     33.8812     183.148     146.882     5.27332    0.694363     0.26438     1.37033     3.84078     4.61181     5.55054     5.69381     5.27357     3.96242     2.62119     721.709      17.758     9.73349     6.27172    0.229355     5.51048     1.77419      1.6438    0.965333    0.203467     1.87447     13.1042      153.97
    652.073     52.3702     6.60021    0.140706     1.60627     5.77926      12.376     18.2858     24.0109     31.3408     42.2121     69.8836     2791.43     8.10994        16.6       20.22     19.5151     18.4293     15.2272     11.2761      7.5108     1.73665    0.330143     20.8821     578.539     739.865     116.472     43.3522     20.3706     8.07423     1.72949  0.00952589      1.8697     8.99414     25.1438     67.8321     266.542      728548      123.42      11.852    0.252936     1.51664     5.69385     10.6252     15.5669     22.7316     23.7818     26.7163     28.7938     29.3768     30.0194     28.6147     27.0886     23.6796     22.0301     15.2817     10.9103     5.78368     1.43132    0.269749     11.8946     124.314      728840      279.44      67.622     25.5269     9.20658     1.80871 0.000552263      1.8122     8.44884     20.5883     40.7599       117.5      742.11     581.434     21.9631    0.343477      1.6448     6.07331      11.467     15.0104     18.4818     20.2275     19.7999     16.6837       7.879     2809.66     70.2846     43.3149     29.2252     24.6357     18.1734      10.838     5.84464     1.70651     0.17324     7.08727     51.7616     639.497
1.73528e+06      143921       20624     445.722     3526.21     14464.1     28436.4       46081     62916.4     85096.6      111985      185744 7.48622e+06     19350.9     43131.1     51904.9     52946.5     48632.5     40654.3     29544.2     17020.5     4456.48     1062.81     58491.1 1.56307e+06 1.97648e+06      308195      120091     52894.8     20967.1     4704.71   0.0249117     5461.77       24698     69002.1      185104      728525 1.95495e+09      330595     31588.2     640.264     4016.61     15393.9       28719       41887     54059.5     64430.7     72284.1     77651.7       79718     81540.2     78030.4     72526.8     64439.6     54046.8       41811     28706.6     15353.4     3961.79     673.128     31909.2      332030  1.9552e+09      729231      185363     69117.6     24564.4     5456.68    0.511316     4793.52     21214.3     53487.2      119502      308984 1.97672e+06 1.55572e+06       57644     948.668     4514.69     16880.1     29617.3     40540.8     48579.4     52834.4     52043.5     42667.8       19375 7.56968e+06      186728      111922     84462.7     63240.9     45884.6     28345.7     14471.6     3522.75     434.017       20726      142665 1.73524e+06
    296.961     25.1583     3.57281    0.125018     0.43093     2.58585     4.90346     7.40488     9.52695     13.8612      18.766     31.0809     1264.15     3.15706     6.54531     8.05309     8.40198     8.12167     6.16782     4.49764     2.63444    0.659178     0.18505     9.98092     265.492     330.784     52.9514     20.9388     8.84964     3.59801    0.742566  0.00459135    0.981415     4.42327     11.8099     31.6966     123.422      330552     58.0102     5.13688   0.0933886    0.733302     2.67305     5.04287     7.18047     9.44187     11.1735     12.5886     13.2137     13.6086     13.9285     13.5333     12.4021     11.1302     9.31447     7.33773     4.97888      2.6349    0.702043   0.0886593     5.19964     54.7973      330720     124.852     31.5108     11.8826     4.51973       0.975  0.00114253    0.674008     3.52936     8.70926     19.6201     52.1491     331.154     262.482     9.96239    0.207188     0.66075     2.50612     4.93669     6.33678     7.72634     7.99767      8.5039     6.27018     3.04972      1277.1     30.1555     18.1305     13.8605      9.6542     7.35201     4.03754     1.49036    0.405888    0.231154     3.95363      24.603     301.301
    28.4994      2.8743    0.474862   0.0354391    0.130828   0.0780064    0.399767    0.661207     0.82612     1.14048     1.54545      2.0265     123.528    0.216404    0.472539    0.727296    0.782056    0.767659     0.34446    0.302628    0.271965   0.0536574   0.0235984    0.982974     25.3841      31.804     4.68618     1.91451    0.849412    0.297499    0.082018 0.000213269    0.107381    0.402284     1.18313     3.04446      11.853     31583.8      5.1365    0.462463  0.00432967   0.0943784    0.306915    0.526247    0.706525    0.976721      1.4724     1.28034     1.45532     1.34885     1.33913     1.27824     1.23119     1.09402    0.964418    0.750731    0.483491    0.284089   0.0722097  0.00646904    0.477578     5.24162       31599     11.8787     3.02916      1.1494    0.373764      0.1053 0.000684752   0.0582928    0.309967    0.811798     1.84384      4.8619     31.8892      25.065    0.976436   0.0282237   0.0558224    0.224016    0.437434    0.451567    0.605476    0.695127    0.800602    0.433743    0.216186      124.45     1.58089     1.50616     1.12273     1.28671    0.636451    0.281453    0.167739     0.08074  0.00240519    0.380402     2.40016     27.4031
   0.629584    0.086261   0.0471552   0.0063203   0.0286674   0.0502679  0.00138694  0.00886918   0.0350558   0.0278137   0.0637059   0.0429286     3.57392   0.0137056  0.00569579  0.00267235  0.00309815  0.00345357   0.0163204  0.00251225 0.000450064    0.043101   0.0185549   0.0303913    0.553193     0.64634   0.0576976   0.0341304  0.00134113  0.00619769  0.00227437   0.0010914 0.000351138   0.0182868   0.0444009   0.0803487    0.252815     640.326   0.0932867  0.00432897   0.0100695   0.0094527  0.00883248   0.0194111   0.0187442   0.0253721   0.0333602   0.0351771   0.0408081   0.0334192   0.0343719   0.0306196   0.0300343    0.035982   0.0143003   0.0186754   0.0180221   0.0162886  0.00144816   0.0797347    0.003918    0.178796     643.639    0.247213   0.0723327   0.0380389   0.0147008   0.0127179  0.00124891  0.00382834   0.0060162  0.00732767    0.038778   0.0549824     0.57227      0.5738   0.0283332  0.00330552   0.0432421   0.0058217    0.048982  0.00525336   0.0058358   0.0130607  0.00124963   0.0207538   0.0194159     3.60526   0.0357969  0.00301381   0.0182993  0.00148347 0.000163535  0.00480187   0.0758475   0.0699603   0.0814294   0.0471964    0.316164    0.773621
    2.63998    0.245568   0.0244215   0.0696919    0.053482   0.0591479   0.0800311   0.0921438    0.142079    0.326227    0.318632    0.504817     15.5503   0.0711976    0.101623    0.122966    0.153089    0.149832   0.0602772   0.0852705   0.0530068   0.0224272  0.00872843    0.146049     3.59218     3.44895     0.69705    0.389744    0.109948   0.0565615  0.00907064  0.00518926  0.00454042   0.0589401    0.162129    0.378994       1.517     4016.73    0.733304   0.0943737  0.00944741    0.840804   0.0214735   0.0358734   0.0429919   0.0883721    0.110631    0.116681    0.121531    0.149597    0.153313    0.162956    0.139057    0.132158    0.109105   0.0779894   0.0541289    0.016388   0.0217944  0.00782368   0.0711506    0.744739     4026.26     1.52946    0.364266    0.119593   0.0464678  0.00793485  0.00523384   0.0105637   0.0924284    0.145434    0.300572    0.856507     4.97046      2.1825   0.0687527  0.00717232   0.0268409    0.031677    0.123312    0.148064    0.131781     0.17982    0.207769    0.127237   0.0898015     15.5549    0.378588    0.302271    0.262279    0.278708    0.211174    0.153521    0.086022   0.0650574   0.0212144  0.00251285    0.195984     2.51908
    13.7545     1.05257    0.177123   0.0120439    0.044355    0.249124    0.191846    0.335978    0.341604    0.910952     1.00839     1.81915     60.3467    0.198238    0.372544    0.439398    0.492202    0.373356    0.404132    0.366059     0.16059   0.0101751   0.0308763    0.442792     12.8703     15.6418     2.35422     1.00437    0.418146    0.157407   0.0420852  0.00180741   0.0293036    0.178488    0.612171     1.52478     5.69443     15402.9     2.67322    0.306853  0.00883519   0.0214812   0.0805668    0.203309    0.320799     0.38507    0.474919    0.408788    0.590115    0.591353    0.618088    0.664762    0.548923    0.491731    0.398793    0.278125    0.204273    0.147616   0.0297635  0.00515431    0.299242     2.72777     15431.2     5.60619      1.3874    0.374387    0.149747   0.0244708 0.000228666   0.0458991    0.167562    0.540863    0.854356     2.58651       15.49     12.4057    0.401497  0.00904714   0.0029685    0.165485    0.468982    0.285914    0.429178    0.456474    0.453557    0.417886      0.1491     66.1674     1.56743    0.951291    0.850644    0.522434    0.413876    0.166458    0.293564   0.0517283   0.0373327    0.118199     1.02219     13.6604
    22.8082     1.94761     0.24534   0.0662228    0.372313   0.0989399    0.392454    0.679194    0.935749     1.43077     1.69174     2.89434     112.061     0.31914    0.677747    0.892485    0.803945    0.836762    0.715304    0.769406    0.278084   0.0878544 5.58171e-05    0.782944     22.4534     29.4643     4.50367     1.71301    0.741555    0.316412    0.123494  0.00037998   0.0728508     0.35203     1.10756     2.80079     10.6254     28721.6     5.04241    0.526346   0.0194129   0.0358653    0.203311    0.206441    0.574525    0.717716    0.900637    0.991561     1.08798     1.08479     1.17631     1.09548     1.03835    0.914905    0.797121    0.616994    0.290717    0.222806   0.0564102   0.0105165    0.470499     5.06418     28739.7     10.4564     2.66358    0.850752    0.328098    0.100427  0.00308398    0.139789    0.345403     0.88552     2.05525     4.69693     29.2217      23.392    0.950163  0.00283653    0.087989    0.235789    0.236261    0.728585    0.689031    0.873944    0.873455    0.743546    0.327133     111.713      3.0502     1.58686     1.41158     1.20425    0.880367    0.392175    0.554118     0.29073     0.10222     0.27698     1.96111     23.6468
    36.1799     2.86821    0.400988   0.0111037    0.082969    0.298157     0.56496     1.07566     1.16046      1.9919     2.46459     4.67648     172.474    0.510779    0.826357     1.27608     1.30481     1.14746    0.808149    0.670303    0.468371    0.136502   0.0308466     1.16061      33.462      43.616     6.83288     2.43523     1.23922    0.464877    0.167657  0.00809906   0.0876108    0.842858     1.43426     3.94168     15.5662     41890.2     7.18035    0.706546   0.0187455   0.0429908    0.320771    0.574509    0.627652     1.08581     1.32708     1.47082     1.52258     1.65556     1.70436     1.62627     1.51598      1.3565     1.15166     1.13766    0.595981    0.313915   0.0932071   0.0191968     0.69828     7.15734       41917     15.4667     3.96372     1.32842    0.563849   0.0963614  0.00650456    0.114182    0.593827     1.22495     2.72642     6.67554     42.2622     34.2316     1.14848   0.0518634    0.125534    0.321324     0.60143    0.702763     1.03241     1.07005     1.13209    0.920441    0.396532     175.154     3.98844     2.45616     2.04915     1.47011     1.10485    0.709342    0.371475    0.113818  0.00951258    0.436131      2.9097     35.9664
    47.1368     3.87669    0.502819   0.0137783    0.275115    0.569019    0.912569     1.39138     1.62595      2.0347     3.26858     5.77131     204.838    0.725624     1.29046     1.57919     1.52067     1.33008     1.00579     1.01586    0.569845    0.137885   0.0212779     1.50126     43.6037     54.3688     8.90792     2.69136     1.47529    0.631998    0.142181  0.00140883    0.115773    0.648439     1.89721     4.92045     22.7315     54063.2     9.44125    0.976626   0.0253773   0.0883483     0.38509      0.7177     1.08583     1.60915     1.72077     1.85921     2.09131     2.16033     2.21167     2.07832     1.98939     1.72752     1.76736     1.12715    0.781685    0.422419    0.103054   0.0188772     0.88551      9.1067     54088.6     21.1494     5.11456     1.87498    0.736608    0.177896  0.00120797     0.13846    0.640634     1.55154     2.34862      8.7238     55.7151     43.8779      1.5957   0.0177845    0.080494    0.392271    0.866366    0.756174     1.58448     1.49279     1.51255     1.18257     0.69018     205.218     5.10123     3.23848     2.16641     1.68392     1.36588    0.783325    0.607785    0.209012   0.0521488    0.508574     3.33756     47.4035
    57.4665     4.36582     0.58683   0.0122136    0.459994    0.544554     1.05684     1.54449     2.58289     2.77336      3.8108     6.72846     239.752    0.762103     1.48777     1.73001     1.79041     1.52877      1.3906    0.997713    0.572349    0.137377  0.00418286     1.88893     50.9034     65.7559      10.626     4.68565     1.81563    0.809317    0.175248 0.000866964    0.149172    0.791698     2.18685     6.07113     23.7824     64424.4      11.172     1.47256   0.0333691    0.110606    0.474841    0.900669     1.32736     1.72089     2.08706     2.28216     2.43886     2.60497      2.6655     2.57152     2.36346     2.12762     1.77589      1.3359    0.915596    0.492408    0.121854   0.0351263    0.931918      10.972     64451.7     23.8835     6.08466     2.28153    0.727122    0.233997 0.000452041    0.239423    0.640061     1.86023     4.01008     10.5562     65.8437     51.8608     1.91984    0.028326    0.179305    0.511052    0.803584     1.26574     1.52728     1.81257     1.64133     1.49207     0.76972     244.626     7.14712     3.79611     2.85545     2.43513     1.53251      1.1642    0.668547    0.416635   0.0113896    0.641004     4.67779     56.3752
    62.7003     5.44591    0.788332  0.00815659    0.179828    0.616455    0.976727     1.55509     2.55605      3.1816     4.24876     7.04227     276.002    0.824642     1.99238     1.72509      2.0029     1.54484     1.36947    0.916761    0.621766     0.12932   0.0890844     2.06467     56.5782     73.3378     10.6753      4.3436      1.9374    0.866277    0.248589  0.00293393    0.315118    0.837218     2.53183     6.90605     26.7162     72268.9     12.5884      1.2806   0.0351996    0.116667    0.408727    0.991623     1.47089     1.85905      2.2817     2.47147     2.78884     2.93313     3.01553     2.90422     2.66446     2.36427     1.94549     1.53803     1.03957    0.446154    0.150994   0.0237475     1.26698     12.3659     72279.6      27.149     6.76559     2.49459     1.03311    0.172834 0.000336705     0.24881    0.835431     2.04968     4.82282     10.7681     73.9086     57.2846     2.39485   0.0709116    0.147585    0.596937     1.06957     1.31748     1.91881     1.93298     1.98001     1.76771    0.889091     275.375     7.11671     4.48448     3.13831     3.12788     1.70141     1.07393    0.634909    0.146349 0.000793148    0.734747     5.44284     62.2507
    67.3984     5.81948    0.924949  0.00382203    0.180498    0.739983     1.03709     1.82895      2.8614     3.64288     4.59793      7.7333     298.866    0.750036     1.95388     2.04994     2.23123     1.98167     1.52399     1.12494    0.738394    0.146515   0.0364461     2.21754     61.7735     78.9757     12.6916     4.96418     2.11461    0.959757     0.20585   0.0049531    0.179638    0.965092     2.71422     7.45839     28.7954     77649.5     13.2134     1.45485   0.0407934     0.12161    0.589856     1.08789     1.52267     2.09085     2.43866     2.78906     2.60041     3.17021     3.21864      3.0395     2.89403     2.53019     2.09612     1.64331     1.10842    0.646445    0.153345   0.0366125      1.3704     13.3336     77688.7     28.9231     7.33762     2.74452     1.04418    0.203472 0.000135055    0.182246    0.940828     2.25999     4.66366     12.6945      78.733     62.4306     2.29272   0.0300803    0.116029    0.573028     1.13813     1.42225     1.87633     2.07717      1.9643     1.72952    0.793848      304.73     7.54925     4.57187     3.31594     2.96761     1.87453     1.02261    0.815484    0.184195 0.000866378    0.825732     5.58157      68.067
    70.5006     5.70888    0.801813  0.00332212    0.135784    0.609204     1.22176     1.92269     2.46503      3.5125     4.72779     7.66244     300.291    0.843564     1.78725     2.25606     2.11431     1.95568     1.65378     1.10815    0.772986    0.242279   0.0561752     2.18362     63.3555     81.2034     12.7026     5.05574      2.1455    0.895839    0.187372 0.000297414    0.191638    0.956782     2.68315     7.47024     29.3787     79757.8     13.6082     1.34906   0.0335053    0.149432    0.591132     1.08473     1.65543     2.15947     2.60485     2.93255     3.17063     3.24184     3.30999     3.17013     2.92948     2.63196     2.17086     1.69671     1.13228    0.596901    0.158484   0.0274474     1.30189     13.6802     79765.9     29.5411     7.44596     2.76626    0.987664    0.226939 5.99083e-05    0.230529    0.862998     2.22356     5.08383     12.6837     80.4829     63.6843     2.43521   0.0131812    0.149659    0.686067     1.08777     1.44444     2.00923     2.20039     2.19325     1.68687     0.74811     303.136     7.82944     4.65599     3.43424     2.33732     1.91349     1.13153    0.650283     0.13794   0.0072825    0.924198       5.348      70.933
    72.8468     5.74164    0.920646   0.0148978    0.202941    0.659263     1.50309     1.96815     2.79815     3.60838       4.644     7.80675     310.188    0.894081     1.90731     2.41031     2.26548     2.23284     1.84976     1.31392    0.791114    0.229454   0.0429855     2.37108     64.2992     83.1475     12.9276     4.97471      2.2999    0.911459    0.163766   0.0029612    0.211432    0.926769     2.80371     7.68538     30.0184     81585.5      13.925     1.33889   0.0343146    0.153348    0.618115     1.17617     1.70437     2.21188     2.66591     3.01583     3.21859     3.31018     3.42199     3.25718     3.01162     2.67402     2.26643      1.6947     1.15232    0.616823     0.15458   0.0337787     1.33208     13.8314     81608.6       30.16     7.65677     2.77259       1.038    0.217963  0.00901591    0.194763    0.903432     2.21522     5.25225     13.2652     82.6182     64.4392     2.50547   0.0371393    0.197097    0.566524     1.15997     1.69691     2.11662     2.06757     2.18322      1.9374    0.784631     313.312     7.89532     4.67656     3.42438     2.54107     1.83226     1.51191    0.743077    0.196129   0.0187553    0.831963     5.97716     72.9546
     68.854     5.55647    0.746952  0.00978102    0.121181    0.627019    0.968124     1.88588     2.65278     3.39201     4.61935     7.31284     299.662    0.874526     1.73305     2.19883     2.28591     2.07241     1.60824     1.20653    0.749521    0.159196   0.0414913     2.18561     62.3714     78.7404     12.0927     4.74221     2.15444    0.925498    0.242623  0.00109881    0.208021    0.976932     2.65044     7.37327     28.6155     78044.6      13.535      1.2785    0.030644    0.162905    0.664863     1.09545     1.62622     2.07814     2.57149     2.90443     3.03948     3.17082      3.2572     3.27741     2.93751     2.59001     2.05307     1.66019     1.12106    0.592803    0.133047   0.0320928     1.35535     13.3126     78083.5      29.293     7.33565     2.73887    0.977113    0.199138 4.60546e-05    0.186519    0.831172     2.21175     4.80986     12.3668     79.2891     62.3685     2.55245     0.10777    0.163277    0.649145     1.17432     1.39858      1.8133     2.05357     1.85273     1.95917    0.762194     305.475     7.37883     4.56828      3.2001     2.66031      1.8266     1.04369    0.493384    0.137643  0.00988403    0.703185     5.61463     68.8228
    63.0658     5.14027     0.77465   0.0255763    0.139983    0.753391     1.17883     1.48564     2.44247     3.16174     4.21976     6.95421     287.258     0.82634     1.85042     1.88746     2.05078     1.63364       1.595     1.24889    0.733203     0.16095   0.0348859     1.92662     57.5134     73.0347     11.3432     4.29432     1.95467    0.824812    0.186009  0.00235178    0.129386    0.815974     2.58801     6.55836     27.0875     72528.9     12.4024     1.23121   0.0300334    0.139042    0.548903     1.03833     1.51607      1.9894     2.36362     2.66443     2.89434     2.92926      3.0112      2.9376     2.65091     2.35918      1.9618     1.53389     1.01277    0.398724    0.131571   0.0341077     1.21714     12.4766       72570     27.3801     6.87988     2.58671    0.766684    0.173512 0.000445851    0.200888    0.851254     2.06214     4.45594     11.4874     72.9477     58.2145     2.11498   0.0426823    0.190477    0.589321     1.14695     1.28169     1.76592     1.97592     1.94881     1.71469    0.712241     290.428     6.93353     4.24579     3.12133     2.52039      1.6341     1.26001    0.419508    0.134382   0.0233887    0.785143     5.13443     63.0165
    56.4152     4.30707    0.553651   0.0123064    0.314145    0.465962     1.09703     1.50273     2.10888      2.6913     3.81583     7.00994     237.904    0.706225     1.44723     1.72526     1.84486     1.87992     1.49957     1.14332    0.619254    0.118354   0.0259385     1.83581     51.1652     65.6105     10.3231        3.63     1.77406    0.640361    0.270509  0.00721867    0.146578    0.773026     2.34089     5.93165     23.6809     64434.1     11.1296     1.09389    0.035976    0.132152    0.491727    0.914961     1.35652     1.72756     2.12757     2.36429     2.53026     2.63193     2.67381     2.58999     2.35934     1.98055     1.77564      1.4244    0.908224    0.464444    0.118609   0.0390535     1.11997     11.2027     64495.3     23.8565     6.20878      2.2477    0.852623    0.138223  0.00107922    0.123737    0.752671     1.70024     4.06706     10.5122     65.8421     51.0198     1.99782   0.0500005   0.0688312    0.509346    0.916135     1.40848     1.72356     1.74677     1.96197      1.4525    0.565058     241.164     7.45365     3.71798     2.93608     2.23117     1.55997     1.08875    0.491729    0.326107  0.00072839    0.608044     4.46341     56.9737
    45.4445     3.56984    0.460295    0.083137   0.0451068    0.561787     0.71391     1.75745     2.14186     1.39707     3.50341     5.14856     196.957    0.573159     1.28674     1.50156     1.76604     1.43472    0.657837    0.873961    0.564584    0.144356   0.0131929     1.51861      42.684     54.6512     8.30412     2.72504     1.37075    0.619016    0.132232  0.00120876    0.137801    0.620094     1.83938     5.04344     22.0301     54047.3     9.31376    0.964521   0.0143033    0.109108    0.398727     0.79711     1.15173     1.76756      1.7759     1.94533     2.09608     2.17094     2.26627     2.05307     1.96149     1.77549     1.75183     1.14343    0.724187    0.415189   0.0866523   0.0255744    0.914656      9.3603     54084.9     20.5302     5.14301     1.90934    0.652894    0.144246  0.00150809    0.154269    0.607751     1.55008     2.91676     8.88011     55.3695      42.765     1.54025   0.0257962    0.105807    0.452504    0.720052    0.373039     1.43263     1.50792     1.29573     1.52277    0.624824     206.021     5.41103     3.40551     1.30218     2.31476     1.39544    0.691316    0.620974   0.0242564   0.0503114     0.73312     3.43569     45.9839
    39.6604     2.90613     0.25027   0.0232281    0.184753    0.299868    0.946579    0.988114     1.60997     1.79797     2.51819     4.50953     158.544    0.446415     1.17977     1.49163      1.0963     1.21646    0.973565     1.00919    0.401111    0.128993   0.0071675     1.11551     33.0716     42.3069      6.6553     2.20112     1.11452    0.431457    0.183592  0.00117572    0.106977    0.495688     1.39772     3.90225      15.282       41814     7.33773     0.75065   0.0186654   0.0779919    0.278136    0.616991     1.13782     1.12723     1.33586     1.53822     1.64328     1.69694     1.69433     1.66009     1.53388     1.42445      1.1434    0.935692    0.559925    0.324975   0.0724204   0.0257351    0.745191     7.26287     41820.7     15.6688     4.10737       1.441     1.15375    0.171337  0.00195769    0.109351    0.514699     1.26705     3.04681      6.5573     44.0482      32.574     1.25618   0.0518336   0.0584026    0.324578    0.705397    0.829122     1.10992     1.01634     1.18068     1.00738    0.445917     157.518     4.18629     2.93618     2.17309    0.973129     1.20052    0.833733    0.386981    0.134282   0.0696955    0.475594     3.59766     41.8986
    22.8148     1.80329    0.208462   0.0655013     0.13838    0.292725    0.544545    0.821767    0.833036     1.62566     1.68008     3.05911     109.479    0.509276    0.859111    0.705049     0.94954    0.794444    0.748436    0.502056    0.311471     0.10444  0.00661542    0.753565     22.4845     29.1778      4.8364     2.00092     0.89426    0.308794    0.120059   0.0029645    0.065816    0.300826    0.996359      2.6759     10.9097     28708.4     4.97952    0.483479   0.0180253   0.0541297    0.204261    0.290691    0.595945    0.781613    0.915501     1.03957     1.10846     1.13238     1.15262     1.12126     1.01287    0.908243    0.724187     0.55995     0.56885    0.219694   0.0540765   0.0152136    0.503497     4.99302     28754.6     10.3584     2.70093    0.995706    0.344937   0.0696568  0.00146546    0.135882    0.301715    0.761191     1.85526     4.90348     29.2019      22.677     0.86819   0.0179312   0.0528916    0.246311    0.385713    0.527016    0.543427    0.837379     0.84252    0.767994    0.331646     112.415     2.93271     1.69743     1.42865    0.944794    0.769368     0.28925    0.239665    0.126875   0.0926199    0.226469     1.97811     23.4218
    12.7941    0.925981   0.0779984   0.0176726    0.134786    0.310262    0.280352    0.290254    0.653247    0.750605     1.20355     1.71068     64.9559    0.136596    0.456945    0.405195    0.456421    0.337865    0.278629    0.303937    0.238526   0.0325146   0.0241626     0.36392     12.2057      15.911     2.53102    0.797922    0.425108    0.175312   0.0684397 0.000773409   0.0212967    0.206409    0.521912     1.20763     5.78331     15356.7     2.63467    0.284102   0.0162873    0.016383    0.147612    0.222827    0.313938    0.422444    0.492431    0.446176    0.646327    0.597022     0.61675    0.592728    0.398768    0.464468    0.415247    0.325007    0.219694    0.062871   0.0284086   0.0111506    0.262391     2.60425     15357.4     5.64168     1.36143     0.50904    0.185707   0.0421776 0.000888521   0.0302332    0.251177     0.41491      1.0252     2.44139     15.8539     12.6173    0.493529  0.00458727   0.0175483    0.135573    0.215538    0.271754    0.476228    0.447451    0.361155    0.441056    0.244958     69.9062     1.63837     0.99342    0.775724    0.547314    0.363223    0.313357    0.123062   0.0408669   0.0411175    0.147429     1.06354     12.9079
    3.73859    0.189479   0.0133352   0.0346155   0.0449935    0.145104    0.096199     0.14746    0.335197    0.205346    0.325294    0.476902     14.3851    0.094762   0.0455304     0.13057    0.141248   0.0930549    0.125625   0.0922805   0.0679826   0.0212416  0.00274652   0.0757916     3.20309     4.06442    0.699315    0.331617    0.107296   0.0963553   0.0250962   0.0136821 0.000431156   0.0450594   0.0991997    0.312817     1.43118     3961.93    0.701882   0.0722057  0.00144769   0.0217936   0.0297645   0.0564137   0.0932089     0.10306    0.121849    0.150964    0.153412    0.158522    0.154656    0.133062    0.131579    0.118624   0.0866409   0.0724252   0.0540609   0.0284079    0.220027  0.00310047    0.075795    0.659417     3958.31     1.50892    0.374013    0.154219    0.022048    0.007571 0.000471931   0.0309634    0.050169    0.146843    0.292205    0.753662     4.27867     2.47956    0.159525  0.00229623  0.00720754    0.053637   0.0461582   0.0870598   0.0946512    0.152276    0.128492   0.0875665   0.0999522     14.5771    0.465055    0.319861    0.200857    0.372431     0.29084   0.0734171   0.0505795   0.0804769    0.030434   0.0213897    0.319579     3.27771
   0.657627    0.134801    0.159135   0.0091976   0.0166921   0.0378537  0.00331763  0.00277708   0.0424086    0.123928  0.00338777    0.055855     3.59149  0.00340757   0.0523359  0.00268583   0.0132541  0.00831235  0.00278384   0.0171327  0.00168726  0.00391973   0.0208409   0.0356013    0.646362    0.607609    0.088093   0.0222232  0.00995911  0.00691947 7.14564e-05  0.00667174   0.0026641   0.0147821   0.0417615   0.0506948    0.269739     673.366   0.0886593  0.00646395   0.0797505  0.00782467  0.00515247   0.0105089   0.0191886   0.0188686   0.0351413   0.0237329   0.0366343    0.027383   0.0337164    0.032107   0.0340956   0.0390335   0.0255754   0.0257149   0.0151915   0.0111406  0.00310049    0.540305   0.0166149    0.102403     675.752    0.247112    0.072106    0.039863   0.0119544  0.00806364 0.000389883 0.000844638   0.0143806   0.0119829   0.0720913    0.125256     0.67012    0.461943   0.0447834  0.00206136   0.0995102  0.00404441  0.00971951  0.00832583  0.00973617   0.0159186   0.0020812   0.0133999  0.00170471     3.25218   0.0697992   0.0246379   0.0246617   0.0886748  0.00415422   0.0398381  0.00653802   0.0202616  0.00513882   0.0286809     0.11969    0.605556
    28.4549      3.1003    0.430664    0.017988    0.345538     0.20236    0.456478    0.640229     1.01926     1.22619     1.69097     1.58398     125.477    0.218349    0.620132    0.737951      0.7744    0.720144    0.312717    0.385874    0.178391   0.0255791   0.0403291     1.22047     25.3986     31.1012     4.33323      1.9568    0.759918    0.240048   0.0770703  0.00376763    0.136176    0.500443     1.31533     3.07824     11.8957     31909.4     5.20062    0.477535  0.00392597   0.0711607    0.299249    0.470417    0.698281    0.885654    0.932007     1.26701     1.37019      1.3014     1.33176     1.35531     1.21721     1.12004    0.914794     0.74536    0.503469    0.262384   0.0758031   0.0166161    0.352415     5.26662     31929.2     11.7913     3.08119     1.15148    0.421161     0.11169  0.00215829    0.092164    0.290781    0.778761     2.08296     4.90858     31.1206      25.257     0.98284   0.0229478   0.0610194    0.290164    0.673044     0.37141      0.7585    0.801152    0.925054    0.777202    0.302508      126.83     1.80786     1.62298     1.23911     0.98664    0.531624     0.52364    0.136069    0.317906   0.0410185       0.381     3.03294     27.7381
    302.406     25.7236     3.96841    0.299675    0.594167     2.33504     4.65212     6.07655       10.65     13.3647        18.3     30.5612     1276.21     2.86348     6.81714     7.37288     8.93625     7.40373     6.52937     5.31132     2.38771    0.637355    0.237809     10.9604     268.912     333.491     51.9877     19.9685      8.6449      3.6349    0.767486  0.00639779    0.964256     4.61478      12.032     31.6684     124.319      332018     54.7967     5.24169    0.178763    0.744745     2.72763     5.06419     7.15735     9.10648     10.9724     12.3658     13.3341     13.6818     13.8374     13.3124      12.476     11.2016     9.35867     7.26247     4.99267     2.60436    0.659467    0.102457     5.26674     57.2185      332224     122.942     31.7108     12.1771     4.44423    0.990747 4.32373e-05    0.812858      3.5394     8.56407     20.5057     51.5238      334.25     268.428      10.084     0.21543    0.825563     2.85779     5.48672     6.95022     8.29987     8.82558     8.78517     7.78599     3.23253     1292.12     31.5873     18.5349     13.8066     10.1688     7.36648     4.52411     2.10232    0.543384     0.29887     4.15554     26.1708     305.265
1.73663e+06      143829     20621.5     447.658     3576.09     14535.4     28401.8       46035     62965.8     85060.2      111997      185721 7.49211e+06     19376.4     43122.8     51890.2     52980.7     48618.2     40697.8     29563.3     17035.7     4449.35     1072.62     58492.9 1.56356e+06 1.97756e+06      308331      120145     52927.7     20981.7      4718.4   0.0346236     5475.08     24707.1     69037.6      185249      728850 1.95561e+09      330720     31599.8     643.057     4025.88     15432.6     28740.1     41916.2     54088.8       64450     72277.6     77679.6     79753.7     81601.4     78090.3     72579.7     64500.7     54093.3     41825.1     28754.2     15350.8     3958.05     676.029     31931.9      332204 1.95649e+09      729502      185343     69054.2     24587.5     5457.61    0.540306     4808.04     21230.2     53513.9      119531      309039 1.97792e+06 1.55643e+06     57660.7     952.875     4528.07     16881.9     29604.8     40565.1     48595.3     52856.5     52095.3     42644.3     19314.5 7.57391e+06      186868      112090     84636.3     63295.2     45893.9       28388     14360.3     3569.99     457.814     20734.3      142649 1.73677e+06
    643.184     53.5788     6.94837   0.0947073     1.44009     6.19055     11.0897     19.5243     25.1747     27.3185     43.0312     69.1856     2780.88     8.53151     16.5199     19.5541     20.5664     18.1421     14.3798     11.0809     6.64127     1.96002    0.354813      20.631     580.284     743.463     116.984     43.0906     20.3817     8.11775     1.77468  0.00409167     1.84337     9.01503     25.2882     68.1618     279.436      729205     124.852     11.8786    0.247149     1.52959      5.6062      10.457     15.4669     21.1486     23.8818     27.1485     28.9279     29.5373     30.1645     29.2917     27.3779     23.8571     20.5309     15.6687     10.3567     5.64153     1.50871    0.247103      11.791     122.937      729505     276.671     69.0264     25.7364     9.31732     1.94624  0.00326887     1.91532     8.06197     20.8146     43.5771     116.186     741.365     580.613     20.9116    0.322043     1.79705     6.81653     10.5287     13.0383     18.2354     19.9816     19.4768     17.1167     7.04508     2829.68     72.3071     42.5532     27.6284     26.2158     18.9356     10.4898     6.45374     1.20566    0.012254     7.38889     51.0534     648.129
    173.692     10.7139     1.07471    0.107653    0.446835     2.07462       8.496     5.17516     7.95204     8.16033     9.92775     19.2103     707.563     2.62129       4.931     4.61297     5.52215     4.61053     3.02588     3.59704     2.24774     0.48077    0.316934     5.21081     145.062      189.94     29.1658     13.3707      5.6254     2.51145    0.585135  0.00682914    0.315462     1.94811     7.39607     19.0308     67.6223      185368     31.5116     3.02895   0.0723762    0.364243     1.38744     2.66357     3.96389     5.11418     6.08438     6.76527     7.33783     7.44712     7.65671     7.33615     6.87974     6.20867       5.143     4.10691     2.70116     1.36147    0.374104    0.072064     3.08149     31.7109      185352     69.0239     13.7315      6.1094     2.10135    0.661906  0.00113957    0.506634     1.94304     5.08705     12.4186     26.2642     190.918     146.075     5.58758   0.0954483    0.610772     2.04904     3.38159      4.0458     4.28296     4.93737     4.73876     4.57973     1.80691     699.724     18.9351     11.4257      9.6028     8.63907     4.41314     3.74654     1.59207    0.629468    0.410636     2.36551     13.0487     175.417
     57.436     3.88893     1.25971   0.0500942    0.667178     0.53456     1.34467     1.82621     2.61395      3.6113      4.1393     7.02002     263.389    0.741476     1.88356     2.22354     1.96474     2.01015     1.79586     2.35559    0.800971    0.223497   0.0125266     1.62264      53.979     72.8949     11.6202     4.31993     2.32257     1.05786    0.155707    0.013586     0.16758     0.77282    0.877227     6.21834     25.5282       69112      11.882     1.14935   0.0380482    0.119595    0.374368     0.85082     1.32843     1.87515     2.28118     2.49453     2.74441     2.76635      2.7737     2.73896     2.58677     2.24778     1.90939     1.44116    0.995806    0.508989    0.154242   0.0398552      1.1516     12.1778     69049.4     25.7372     6.10949     3.85972    0.926264    0.142987   0.0051801    0.234207    0.885078     2.22226     4.24893     11.8878      72.666     53.9293      2.1549   0.0477447    0.191072    0.762384     0.26233     1.83941     1.96758     2.11499     2.07285     1.83707    0.765853     265.175     6.74171     4.63026       3.714     2.89217     1.89178     1.33476     0.76197    0.682706    0.227481    0.611793      3.8148     55.8834
    20.9254     1.33691   0.0702832   0.0110314    0.249968     0.48756    0.443576    0.696947     1.09131     1.09809      1.9277     2.38351     94.1586    0.473285     0.74259    0.783378    0.840442    0.728163    0.691591    0.641506    0.395951    0.120539  0.00851172    0.459287     18.6336      26.605     4.12354     1.52865    0.831139    0.520124   0.0943554     0.19676   0.0137973     0.28099    0.665677     2.29866     9.20695     24565.1     4.51953    0.373799   0.0147037   0.0464646    0.149758     0.32806    0.563832    0.736604    0.727016     1.03316     1.04438    0.987732     1.03862    0.977168     0.76656    0.852562    0.652863     1.15383    0.344908    0.185675   0.0220431   0.0119565    0.421162     4.44415     24583.7     9.31707     2.10106    0.926206    0.193256   0.0483531   0.0175911    0.103376    0.319204    0.773374     1.58484     4.43767     25.6853     19.3593    0.690546   0.0468477   0.0401606    0.212874    0.377717    0.571749    0.677145    0.713074    0.644329    0.645979    0.285569     96.2561     2.06426     1.70814     1.34089     1.36935     1.01401     0.42954    0.407599    0.159515   0.0100612     0.14617      1.1731     20.8531
    4.19066    0.107658   0.0516018   0.0471042     1.27414   0.0764925    0.157357    0.200605    0.510356    0.483297    0.522913     2.41049     19.3504    0.054897    0.222221    0.226162    0.248449    0.241102     1.08371    0.254088    0.127175   0.0617125 0.000704706   0.0390902     3.68694     7.87892    0.992878    0.508716    0.259665    0.109498   0.0347349  0.00745512   0.0954463   0.0423284    0.326599    0.340902     1.80858     5460.24    0.975204    0.105259   0.0127293  0.00793807   0.0244782    0.100429   0.0963847    0.177904    0.234021    0.172861    0.203513    0.227097      0.2178    0.199097    0.173545    0.138214    0.144245    0.171335   0.0696452    0.042166  0.00756767  0.00806523    0.111653    0.990778     5460.32      1.9463    0.661906    0.142981   0.0483503    0.139191   0.0113816   0.0413166    0.119109     0.17575    0.389994     1.47864     7.80341     4.46423   0.0797245  0.00543242   0.0352129   0.0844356    0.165983     1.12378    0.228679    0.191157    0.217198    0.180416    0.141274     20.5946      2.5733     0.48427    0.355075    0.180176    0.112649    0.212914    0.161751     1.08247    0.116028   0.0406629    0.194306     4.04402
 0.00690125   0.0394993  0.00543319  0.00410401   0.0457647    0.177192   0.0143644   0.0291203   0.0485261   0.0148828   0.0276308   0.0518346 0.000987709  0.00698979   0.0354711   0.0192636   0.0501037   0.0252495   0.0504334   0.0270906   0.0106502    0.158892  0.00651348   0.0315403   0.0103771   0.0223151   0.0176783  0.00634077   0.0215462   0.0272499  0.00742697    0.423774   0.0073419  0.00649895   0.0122401  0.00687204 0.000551137    0.511911  0.00114583 0.000685981  0.00124946  0.00523581 0.000228865  0.00308333   0.0065046  0.00120868 0.000451869 0.000336693 0.000137098 6.12796e-05  0.00899778 4.58117e-05 0.000447759  0.00107969  0.00150896  0.00196027  0.00146583 0.000889954 0.000471388 0.000392461  0.00215759 4.30458e-05     0.52771  0.00327103  0.00113967  0.00517703   0.0175881    0.011385     0.40073    0.010962   0.0141417  0.00716842  0.00156493   0.0179699    0.028631  0.00323654  0.00447343  0.00187046   0.0976443   0.0121496  0.00711785 0.000485216   0.0109314  0.00849586   0.0112512   0.0363815   0.0247406  0.00446591  0.00840611   0.0165868   0.0413558  0.00309314   0.0373984   0.0240379    0.246691   0.0568679   0.0185625  0.00998542  0.00982948 0.000334495
    4.88267    0.506064    0.158613    0.119863   0.0477287   0.0176744    0.068666   0.0520607   0.0846304    0.181366    0.204323    0.300169      18.454  0.00321117   0.0652954   0.0837464   0.0486119  0.00483269   0.0735447   0.0375008 4.66727e-05 0.000204633   0.0379506    0.324891     4.57266     4.31088    0.692675    0.217051   0.0620611   0.0139694    0.748777   0.0105762   0.0750743   0.0740453    0.337415    0.392683     1.81226     4793.23    0.674022   0.0582791  0.00383368   0.0105641   0.0459047    0.139786    0.114167    0.138489    0.239435    0.248835     0.18221    0.230318     0.19462    0.186475    0.200877    0.123713    0.154279    0.109338    0.135896    0.030237   0.0309681 0.000844474    0.092167    0.812917     4808.66     1.91578    0.506538    0.234155    0.103367   0.0413112   0.0109588    0.642613  0.00973968   0.0816907    0.128976    0.548747     4.09944      4.0824    0.155229   0.0553481   0.0173543  0.00746913   0.0168232    0.114368    0.071899   0.0934742   0.0750097   0.0728229  0.00719407     18.5377    0.306829     0.13862    0.149796   0.0775263   0.0285373   0.0578518    0.045874   0.0457249   0.0609328    0.178136    0.289995     4.85177
    18.6261     2.21273    0.338793   0.0123559   0.0198821    0.043727    0.262989    0.341343    0.260601       0.812    0.989259     1.64004     86.9807   0.0982506    0.285891     0.35609    0.372852    0.340234    0.195392    0.154269    0.106991  0.00361071   0.0460132    0.872099     18.1422     19.9059     2.68437     1.15469    0.384638    0.114532   0.0159637   0.0292073    0.119647      0.4016    0.757928     2.60281     8.44865     21216.6     3.52924     0.31001  0.00601291   0.0924274    0.167566    0.345364    0.593778    0.640604    0.640121    0.835482    0.940965    0.862674    0.903004    0.831103    0.851188     0.75261    0.607714    0.514714    0.301697    0.251187   0.0501558   0.0143754    0.290761     3.53912     21232.6     8.06208       1.943    0.885051    0.319206    0.119099   0.0141353  0.00973886    0.135934    0.413799    0.956894     2.64378     19.8331     16.7985    0.745898   0.0316563   0.0234531    0.148374    0.276026    0.326377    0.332083    0.403091    0.546935    0.353382    0.069796     85.4132     1.61244     1.02096     0.99577    0.661611    0.266686     0.15977    0.126163   0.0239782   0.0584261    0.387391      2.4108      18.449
    53.7295     4.45087    0.976054   0.0696302   0.0179141    0.139955    0.752371    0.925181     1.78248     2.05147     2.55826     4.67207     212.918     0.22253    0.773548    0.953848     1.28226     1.16591    0.783601    0.422041    0.250374    0.083564    0.170503     2.16871     45.4395     51.4767     8.53362     3.13448    0.045305    0.358519   0.0617068   0.0331275    0.365348    0.870143     2.25333     5.48731     20.5878       53488     8.70986    0.811745  0.00731964    0.145463     0.54086    0.885518     1.22492     1.55156     1.86028     2.04984     2.25995     2.22339     2.21523      2.2117     2.06184     1.70031     1.54996     1.26715    0.761175     0.41492    0.146875   0.0119735    0.778729      8.5635     53518.1      20.814     5.08692     2.22227    0.773342    0.175742  0.00716883   0.0816674    0.413825      1.2709     2.46757     7.39022     52.3158     43.4461     2.03845    0.113743   0.0760312    0.431325    0.572166    0.666338     1.12527     1.19227     1.16869      1.0251    0.317013     213.136     4.87748     3.04658     1.90467     1.30988     1.21779    0.750823    0.456012   0.0746756    0.182124    0.960958     4.49764     51.1402
    112.914     8.56765     1.28612    0.500604   0.0620031    0.537528     1.95697     2.54208     4.13449     4.60363     5.96074     9.92777     454.107    0.456749      1.9175     3.11983     2.85958     2.61979     2.63584     1.17069    0.696562    0.284379    0.100242     4.54091     97.5648     117.658     17.1345     15.5258     2.35704     1.02287    0.195635   0.0151951    0.386035     1.75335     4.58638     12.4409     40.7611      119496     19.6206     1.84389   0.0387553    0.300569    0.854538     2.05505     2.72628      2.3482     4.01021     4.82262     4.66322     5.08304     5.25183     4.80973     4.45557     4.06683     2.91692     3.04691     1.85521     1.02541    0.292188   0.0720872     2.08307     20.5056      119533      43.575     12.4182     4.24901     1.58492    0.389989  0.00156526    0.129022    0.956999     2.46746     10.9655      19.454     117.429     97.1603     4.36548    0.146395    0.197824    0.723328     1.65501     3.01831     2.60538     2.75881     3.26272     2.36571    0.655636     454.351     11.1646     6.17667     4.18025     3.24874     2.42644     1.88316    0.894648    0.176726     0.50592      1.8814      9.4408     109.286
    276.573     25.8222     3.92986     0.37779    0.353741      1.5004      2.9885     5.76326     10.0549     12.5527     16.8099     26.3703     1188.98     2.79751     6.14337     7.48305     8.04441     6.55569     5.54762     5.15712     2.43651    0.558234    0.211144      10.649     248.952     311.021     32.9336     13.5782     8.16788     2.92908    0.503043   0.0101571    0.979532      4.6824     11.3742     33.8808       117.5      308970     52.1516     4.86189       0.055    0.856371     2.58618      4.6967     6.67533     8.72354     10.5554     10.7679     12.6954     12.6851      13.266     12.3674      11.488     10.5112     8.87945     6.55669     4.90346     2.44101     0.75368    0.125251     4.90835     51.5247      309015     116.181     26.2644     11.8884     4.43787     1.47875   0.0179711    0.548779     2.64383      7.3904     19.4546     33.1035     310.122     248.191     9.69202    0.155533    0.640374     2.49452     4.16959       5.985     7.08901     7.76532      7.4853     6.51264     2.71242     1196.01     26.4648     17.8066     12.2971     12.9239     5.74112     4.68114     1.82462    0.467872    0.255471     3.52344     25.1081     265.741
    1779.59     148.599     22.2886     1.02936    0.634367     14.3729     28.1304     45.4563     64.4204     83.1217     111.007     164.067     7609.65     17.4984     42.2945     50.5774      51.738     47.4131     29.0684     28.5819     15.6267      3.8301     1.40315     62.4707     1598.02     1955.19     302.988     120.883     50.3774     19.9125     4.59549  0.00361988     7.80259     26.4028     71.1144     183.141     742.113 1.97673e+06     331.115     31.8842    0.572054     4.97081     15.4911     29.2217     42.2612      55.715     65.8393      73.912     78.7263     80.4695     82.6209     79.2856     72.9477     65.8374     55.3681     44.0501     29.2016     15.8554      4.2792     0.66988     31.1201     334.259   1.978e+06     741.398     190.925     72.6713     25.6836     7.80102   0.0286763      4.0995     19.8316     52.3144     117.436     310.137        1971     1572.36     59.7364     1.37659       3.978      16.335     28.2958     28.3423     47.1717     52.2966     51.1446     42.1105     18.8265     7696.72     160.484     112.072     83.9923     61.9252     44.9674     29.5197     14.4734     1.02385    0.753941     23.2294     148.588     1766.69
    1372.32     112.836     14.8191    0.191598     2.81424     12.5612     23.0224     38.6788     49.7443     67.7579     91.0191     145.114     5989.96      16.889     36.0018     42.0556     43.4609     38.9558     33.9075     25.5518     13.9934     3.81441    0.885397     44.7611     1235.74     1569.57     248.908     94.3595     42.3391      16.904     4.02626   0.0281093     4.27364     18.8212     55.8191     146.888     581.367 1.55574e+06     262.493     25.0643    0.573843     2.18076     12.4062     23.3905     34.2316     43.8774      51.858      57.284     62.4279     63.7026     64.4571     62.3659     58.2144     51.0213      42.767     32.5762     22.6801     12.6193      2.4799    0.462244      25.256     268.431 1.55651e+06     580.591     146.075     53.9351     19.3601     4.46436  0.00323045     4.08139      16.801      43.447     97.1591     248.187     1572.44     1193.55     44.7802    0.576224        3.97     13.7969     24.7928     32.2625     40.4997     43.5138     41.3231     36.2704     16.3079     6022.55     144.431     90.8541     66.6952       51.39     38.5419     22.4296     11.4291     2.85288    0.206306     15.0013     108.371        1371
    48.8575     3.92377    0.374833   0.0406007    0.127304    0.512297    0.962696      1.7987     1.85856     2.86815     4.02809       5.799     215.156    0.772688     1.34495     1.83166     1.77588     1.65983     1.41846     1.13404    0.660018    0.160337   0.0131899     2.87133     45.1772     60.2068     9.71288     3.61481     1.67421    0.712036    0.159255  0.00958782   0.0649179    0.677544     1.94443     5.27258     21.9633     57646.5     9.96204    0.976351   0.0283207   0.0687506    0.401507    0.949967     1.14832     1.59557     1.91989     2.39501     2.29268     2.43541     2.50604     2.55206     2.11491     1.99747     1.54016     1.25613    0.868076    0.493481    0.159518   0.0447356    0.982927     10.0839       57663     20.9105     5.58707     2.15475    0.690552   0.0797625  0.00448041     0.15522    0.745981     2.03841     4.36569     9.69293     59.7401     44.7842     1.01328    0.013479     0.21114    0.537242     1.07551    0.955225      1.5461     1.76781     1.59486     1.15852    0.776094     216.743     5.97424     3.74378     2.91451     1.93534     1.31042     1.06181    0.406074    0.115227   0.0352994    0.167824     3.56737     48.8266
   0.774098   0.0348013  0.00324764    0.257347   0.0787911   0.0680933    0.102713   0.0494145   0.0472674   0.0316884    0.115311   0.0402411     4.54826    0.233767    0.180891    0.283698    0.080468  0.00879815    0.174519    0.190154   0.0729891   0.0151256   0.0446632    0.020715    0.580684     1.10357    0.140138    0.141584   0.0812693    0.100668   0.0162072   0.0136421    0.008406  0.00123354   0.0713813    0.694284    0.343348      949.44    0.207162   0.0282113  0.00330963  0.00717413  0.00904979  0.00283754   0.0518485    0.017793    0.028321   0.0709323   0.0300757   0.0131784   0.0371254    0.107787   0.0426754   0.0499951   0.0258048   0.0518516   0.0179353  0.00457022  0.00229635  0.00206119   0.0229594    0.215496     952.634    0.321907   0.0954469   0.0477411   0.0468198   0.0054379  0.00186768   0.0553521   0.0316361    0.113721     0.14638    0.155421     1.37679    0.575932   0.0134788     0.82656  0.00462309  0.00480988    0.072872   0.0588716   0.0532289   0.0508709   0.0779612   0.0390365   0.0266424     3.43039    0.169429    0.227494   0.0285714    0.295509   0.0508739   0.0801558  0.00325289    0.124571   0.0932073   0.0276969  0.00293255    0.963285
    3.87353    0.850187   0.0847074   0.0472649   0.0907954    0.080431   0.0016436    0.129055   0.0815888    0.320386    0.184412    0.243167      17.111  0.00167028    0.177255   0.0940984   0.0854531   0.0427246    0.128731   0.0172726  0.00632175   0.0113584  0.00749993    0.212935     3.96915     4.07661    0.653188    0.246804    0.031478  0.00646798  0.00437985    0.142696   0.0615465   0.0663167    0.162854    0.264443     1.64483      4514.9    0.660695   0.0558264   0.0432411   0.0268422   0.0029683   0.0879989    0.125529   0.0805088    0.179305    0.147587    0.115982    0.149613    0.197194    0.163347    0.190434   0.0688649    0.105775   0.0584076   0.0528893   0.0175482  0.00720279   0.0994842   0.0610475    0.825535     4528.53     1.79768    0.610829     0.19107   0.0401669   0.0352139   0.0976489   0.0173607    0.023455   0.0760096     0.19781    0.640321     3.97809     3.97168    0.211141  0.00462724     1.82433   0.0530669    0.104951    0.124542   0.0231454    0.073788    0.176946    0.464511   0.0493049      19.384    0.325201     0.31712    0.165264     0.18506  0.00551972   0.0513687   0.0225169    0.126202   0.0326921   0.0708448    0.613837     3.58518
    16.8868     1.34666    0.279583   0.0755256   0.0275974    0.129122    0.148037    0.213262    0.560459    0.579526    0.795305     1.17229     68.6543   0.0830523     0.19491    0.409441    0.323605    0.344855    0.246404   0.0961421    0.192536   0.0018949    0.026259    0.849408     13.9995     15.7971     2.59235    0.947382    0.288482    0.115667  0.00994308    0.038089   0.0896359      0.3475    0.849662     1.37037     6.07293     16880.7     2.50612    0.224033   0.0058185   0.0316723    0.165506    0.235804    0.321333    0.392246    0.511039    0.596937    0.573044    0.685868    0.566472    0.649118    0.589356    0.509352    0.452466    0.324589     0.24633    0.135573   0.0536317  0.00404848    0.290202     2.85768     16882.8     6.81744     2.04905    0.762321    0.212849   0.0844341    0.012145   0.0074697    0.148398    0.431345     0.72332     2.49469     16.3342     13.7973    0.537312  0.00480698   0.0530632   0.0438188    0.204569    0.190208    0.299188    0.351869    0.351212    0.214128   0.0702958     67.9386     1.37144    0.774973    0.590231    0.264518    0.282409    0.304619   0.0307834 0.000575686   0.0457443    0.387145     1.48106      15.984
    29.3504     2.60604    0.517908    0.122958  0.00613765    0.162594    0.901259    0.547665    0.746081     1.43648     1.20982      1.6894     115.944    0.123971    0.288111    0.391276    0.511886    0.505936    0.262566    0.773111    0.280875   0.0159747    0.142783    0.978778     25.3115     28.3517     3.89779     1.94677    0.520938    0.160624  0.00514438  0.00633267   0.0730707    0.599515     4.49219     3.84099     11.4678     29617.3     4.93699    0.437492   0.0489807    0.123302    0.468998    0.236224     0.60145    0.866391    0.803653     1.06959     1.13802     1.08738     1.15991     1.17417     1.14703    0.916219    0.719996    0.705421    0.385737     0.21554   0.0461526  0.00971623    0.673009     5.48716     29603.3     10.5289     3.38163    0.262318    0.377743    0.165959  0.00711787   0.0168265    0.276033    0.572195     1.65505     4.16984     28.2966     24.7911     1.07539   0.0728823     0.10493     0.20458    0.325529    0.426081    0.473472    0.500413    0.882896    0.521689   0.0960099     116.485     2.86456     1.26257     1.25047    0.951724    0.747234    0.596268    0.127849   0.0245539   0.0018835    0.506473     3.94749     29.9106
    33.2909     3.40197    0.577103    0.154794     1.50899    0.624088    0.504702    0.673849    0.805689     2.79159     2.35353    0.720604     159.255    0.498398    0.757249     1.13957    0.893216    0.927499     1.12692    0.428285    0.252595    0.150699   0.0148025     1.34516     33.3997     28.4536     5.04062     1.88368     0.70758     0.28744   0.0269604    0.021716    0.886263    0.626762     2.01958     4.61188     15.0116     40541.2      6.3364     0.45163  0.00524691    0.148023    0.285866    0.728515    0.702743    0.756081     1.26579      1.3175     1.42241     1.44439     1.69692     1.39887     1.28169     1.40854    0.372991    0.829054    0.526964     0.27175   0.0870433  0.00832454    0.371478     6.94989     40564.6     13.0364     4.04546     1.83951    0.571764     1.12387 0.000485592    0.114375    0.326407    0.666335     3.01798     5.98472     28.3461     32.2591    0.955206   0.0588556    0.124553     0.19019    0.426057     2.70952    0.827383    0.868394      1.1864    0.534406    0.237273     160.626    0.292715     1.96028     2.56201     1.18693    0.785033     0.78202    0.414749     1.92419   0.0955336    0.634595     4.02964       36.93
    41.0771     4.09408    0.719367   0.0906117   0.0507628    0.156489    0.274326     1.00799     1.03389     2.28071     2.23337     4.33355     188.311    0.477488    0.917205    0.802946     1.02295    0.311566     1.14739    0.326969    0.363963    0.103729   0.0738092     1.89003     41.7996     48.4516     7.63762     2.73907     1.07911    0.400678   0.0318181   0.0101625    0.253229    0.890921     2.18743     5.55046     18.4823     48586.6     7.72621    0.605429    0.005843    0.131796    0.429196    0.689002      1.0324     1.58445     1.52736     1.91863      1.8763     2.00894     2.11669     1.81345     1.76573     1.72362     1.43255        1.11    0.543423    0.476148   0.0946399  0.00973334    0.758522     8.29948     48600.3      18.236     4.28274     1.96734    0.677182    0.228652   0.0109339   0.0718768    0.332087     1.12519     2.60527     7.08858     47.1786     40.4936     1.54619   0.0532198   0.0231434    0.299169    0.473488    0.827435    0.486069     1.07064     1.17765    0.861958    0.402995     191.872     4.26962     2.29296     2.09006     1.44774     1.17053    0.372981    0.245387   0.0770782    0.108349     0.55432     3.88274     42.6153
     47.821      4.3679    0.728349   0.0167086   0.0186693     0.22542    0.460454    0.887639     1.30379     2.22058     2.59365     3.88773     206.633    0.376167    0.856656     1.01022     1.05947     1.06115    0.880048    0.672225    0.385515   0.0607642   0.0935267     1.75754     43.1282     51.7586     7.61498     2.62178     1.06479    0.466215   0.0459073   0.0138225    0.237902    0.844439     2.31821     5.69359     20.2286     52831.9     7.99727    0.695021   0.0130679    0.179819    0.456507    0.873841     1.06997     1.49285     1.81264     1.93281     2.07722     2.19932     2.06741     2.05339     1.97608     1.74694     1.50786     1.01645    0.837357    0.447459    0.152279   0.0159103    0.801148     8.82644     52858.1     19.9832     4.93757     2.11495    0.713108    0.191142  0.00849607   0.0934703    0.403037     1.19231     2.75885     7.76535     52.3016     43.5102     1.76773   0.0508734   0.0737932     0.35184    0.500374    0.868367     1.07065     1.09615     1.07972    0.907818    0.505696     209.958      4.5827     2.73989     2.32041     1.54349    0.872282    0.549078    0.431347   0.0552855   0.0314168    0.660915     4.26354     47.7682
    45.0424     4.73483    0.660658   0.0952702   0.0144928     1.05924    0.548396     1.13298     1.70982     2.09382      2.9255     4.73294     203.117    0.331817     0.95335     2.38437      1.0573      1.3494     0.89571    0.694454    0.326573   0.0531968    0.109656     2.20848     41.7461     51.9553     8.03036      2.9254     1.27192    0.402469   0.0848457   0.0169036     0.18106    0.747367      1.9175     5.27306     19.8007     52045.3     8.50177     0.80065    0.001248    0.207766    0.453556    0.873504     1.13221     1.51232      1.6415     1.97994     1.96428     2.19294     2.18355     1.85268     1.94879     1.96162     1.29572     1.18063    0.842523     0.36119    0.128463  0.00208402     0.92498     8.78613     52093.7     19.4762     4.73875     2.07294    0.644335    0.217162   0.0112525   0.0750127    0.546932      1.1687     3.26272     7.48504     51.1505     41.3217     1.59497   0.0779515    0.176949    0.351194    0.882918     1.18635     1.17763     1.07975      2.0325     1.04425    0.285148     203.989     4.80395       2.551     1.98467     1.62826     1.35219    0.703992    0.398546   0.0126657   0.0594425     0.74048      4.5159      46.574
    38.6566     3.53222    0.520041   0.0714927   0.0530118    0.132462     0.33233    0.918382    0.914227      1.9599     2.23544     4.74008     169.606    0.276341      4.5054     1.41017     1.03271    0.797572     1.14084    0.349633    0.156301    0.107618    0.181496       1.648     35.3573     42.4188     5.77448      2.2952    0.843471    0.279686   0.0508485    0.132935    0.165978    0.660894     1.92441     3.96259     16.6837     42669.8     6.27138    0.433761   0.0207491    0.127234    0.417874    0.743402    0.920518     1.18262     1.49226     1.76763      1.7296     1.68684     1.93721     1.95941     1.71466      1.4525       1.523     1.00748    0.767996    0.441137   0.0875656   0.0133914    0.777087     7.78565     42640.9     17.1168     4.58006     1.83699    0.645953    0.180427   0.0363942   0.0728433    0.353451     1.02536     2.36585     6.51328     42.1113     36.2668     1.15841   0.0390329    0.464547    0.214164    0.521676    0.534448    0.862086    0.907765     1.04424     3.36834    0.230881      171.52     4.00471      1.7318     1.86552     1.35328    0.698076    0.394727    0.206358     0.12679    0.127676    0.692551     3.78668     37.8155
    19.1148     1.70647    0.568798    0.153988   0.0105325     0.10542    0.232847    0.436113    0.713668    0.952506    0.844287     1.68953      73.227    0.629465    0.346877    0.470648    0.403754    0.394188    0.216473    0.264167   0.0579119   0.0172257   0.0840304    0.966777     16.6326     17.8597     2.59567     0.91392    0.305977   0.0883251   0.0176772   0.0570036   0.0981925    0.422938       1.316     2.62093     7.87894     19373.7     3.05102    0.216206   0.0194091   0.0897464    0.149051    0.327037    0.396527    0.690162    0.769669    0.889256    0.793895    0.748158    0.784741    0.762146    0.712222    0.564873    0.624783    0.445952    0.331494    0.244936   0.0999704  0.00169827    0.302545     3.23261     19314.3      7.0446     1.80654    0.765708    0.285621    0.141247    0.024738  0.00719668   0.0697915    0.317055    0.655736     2.71212     18.8282      16.307    0.776309   0.0266702   0.0493084   0.0702968   0.0959931    0.237357    0.403047    0.505645    0.285217    0.230895    0.888391     75.3556     1.76616    0.870744    0.617473    0.463689    0.266422    0.266259    0.271537  0.00130331    0.128692    0.382483     1.70116     18.1078
    6681.36     544.802     78.7206      1.7589     15.9621     54.6496     111.886     176.153     259.441     331.407     441.016     726.487     28937.2     79.8742      170.22     200.909     214.236     187.163     158.351     116.003     68.9487     18.6284      5.0034     220.338     6006.98     7699.63     1202.32      463.76     200.534     86.5558     15.6997    0.910487     19.2238     91.0527     262.386     721.759     2808.51 7.56642e+06     1277.14     124.542     3.61156      15.545     66.0753     111.715     175.155     205.223     244.661     275.516     304.764       303.1     313.196     305.198     290.241     241.192     205.894      157.48     112.353     69.8204     14.5547      3.2588     126.874     1292.14 7.57179e+06     2828.12     699.801     265.246     96.1614     20.6051  0.00435879      18.581     85.4912     213.135     454.358      1195.9     7699.38     6020.16     216.784     3.43756     19.4251     67.9656      116.48     160.633     191.806     209.973     204.048     171.564     75.3455     29342.4     721.513     438.644     331.061     250.786     177.567     111.888     58.7244     15.7731      1.2697      78.598     545.608     6662.78
    162.671     14.9923     2.16657    0.150709     0.66432     1.03349     2.52051     3.78584     6.23449     10.5667     8.90671     12.7786     720.991     1.61096     4.39218     3.97003     3.92625     3.65294     0.93269     1.98571     1.42122    0.355842   0.0820145     6.22889     160.204     159.783     27.9223     11.0196     4.50116     1.74454    0.238705 0.000755279      2.5933     2.32486     6.31255     17.7579     70.2852      186721     30.1551     1.58172   0.0357785    0.378497     1.56723     3.05046     3.98858     5.10152     7.14743      7.1171     7.54942     7.83073     7.89456     7.37869     6.93281     7.45425      5.4116     4.18679     2.93256     1.63845    0.464985    0.069778     1.80751     31.5853      186864     72.3104     18.9355      6.7414     2.06534     2.57407  0.00840829     0.30689     1.61227     4.87728     11.1656     26.4652     160.509     144.429     5.97505    0.169537    0.325203     1.37151     2.86465    0.292849      4.2693     4.58256      4.8034      4.0044     1.76619     721.497     6.40342     9.40341     8.95937     5.93878     4.60667     3.00197     2.23066    0.591178    0.182045     2.34181     14.5896     167.798
    98.6246     8.95635     1.62147   0.0462418   0.0885379    0.449312     1.53379     2.40772       2.805     5.39557     3.14136     9.14518     434.866    0.827478     2.36731     2.43722     2.57057     2.35468     1.87765     1.52646    0.653805    0.155821    0.283497     3.58976     88.7277     111.016     16.3136     5.91767     2.49788    0.754658    0.142592   0.0458168    0.499315     1.73147     4.30976     9.73385     43.3146      111919     18.1296     1.50635  0.00301863    0.302227    0.951271     1.58682     2.45609     3.23838     3.79617     4.48423     4.57202     4.65657     4.67675     4.56855     4.24578     3.71791     3.40584     2.93634     1.69739    0.993365    0.319857    0.024619     1.62297     18.5354      112090     42.5524     11.4256     4.63041     1.70818    0.484303   0.0165928    0.138597      1.0209     3.04663     6.17626     17.8075     112.071     90.8462     3.74417    0.227514    0.317062    0.775103     1.26275     1.96037     2.29293     2.73971     2.55101      1.7319    0.870576     438.688     9.40359     2.83051     5.02949     3.31535      2.2295     1.34224    0.467629     0.12454   0.0769817     1.58808     9.34602     101.528
    77.3712      6.0636     1.15988    0.450058    0.138741    0.345959     1.32822     1.63741     2.91776     23.4921     4.63098      8.5101     331.076    0.798513     1.52848     2.77686     1.82185     2.07811     2.86118     1.15597    0.430584    0.221975     0.12526     2.93353     69.4532     81.8822     12.1773     5.51962     1.82154     0.81475    0.129776 0.000520678    0.391474     1.25847     3.17247     6.27147     29.2197     84461.1     13.8602     1.12282   0.0183062    0.262228    0.850696     1.41143     2.04919     2.16617     2.85534     3.13815     3.31589      3.4337     3.42467     3.19993      3.1213     2.93634     1.30214     2.17292     1.42844     0.77569     0.20083   0.0246654     1.23899      13.807     84632.1     27.6301     9.60302     3.71393      1.3409    0.355096   0.0413488    0.149832    0.995747     1.90494     4.18021      12.297     83.9981     66.6926     2.91435   0.0285763    0.165248    0.590142     1.25043     2.56145     2.09001     2.32027     1.98463     1.86552    0.617208     330.907     8.95961        5.03     13.4184     2.70149     1.55321     1.35697    0.523717    0.250473    0.129943    0.901068     7.55223     77.3436
    64.9234     4.97665     1.04481    0.023207   0.0915227    0.317798    0.475094     0.81453     4.80749     2.78079     3.75375     4.98497     243.259    0.341725     1.05618     1.35832     1.37415     1.20981     2.02412    0.568726     0.38133   0.0748598    0.288668     2.71024     54.4832     60.3468     8.94706     2.98029     1.76605    0.200784   0.0244093   0.0236393     0.36736    0.886913     2.29431    0.229345     24.6352     63241.9     9.65332     1.28662  0.00148692    0.278644     0.52244     1.20432     1.47006     1.68384     2.43518     3.12763     2.96764     2.33722     2.54155     2.66026     2.52019     2.23126     2.31463     0.97305    0.944737    0.547345     0.37246   0.0886527    0.986669     10.1689     63295.7     26.2139     8.63891     2.89201     1.36928    0.180192  0.00309119   0.0775157    0.661613     1.30986     3.24839     12.9254      61.926     51.3893     1.93556    0.295494    0.185043    0.264575    0.951819     1.18686     1.44771     1.54349      1.6282     1.35308    0.463782     250.781     5.93898     3.31511     2.70141     15.9349     1.57203     2.24939    0.483922   0.0912534    0.962534     1.61945     4.89176     64.7659
    42.7235     3.90752    0.707083  0.00659441   0.0207874    0.125857    0.292679     3.29472     1.15422     1.73956     2.14451     4.29296     178.023    0.445417     1.00227     1.21654    0.943015     1.38371    0.655797    0.410416    0.279791   0.0760505   0.0734444     1.63669     38.0482     44.7892     5.97546     2.15587     1.10489       0.339   0.0135968   0.0422392    0.245461    0.738273      2.4342     5.51082     18.1735     45885.1     7.35217    0.636363 0.000163834    0.211232    0.413887    0.880357     1.10492      1.3658     1.53252     1.70151     1.87458     1.91325      1.8319     1.82665     1.63409     1.55993     1.39537     1.20056    0.769378     0.36324    0.290831  0.00414789    0.531579     7.36646     45892.6     18.9341     4.41351     1.89164     1.01404     0.11263    0.037397    0.028541    0.266714     1.21781     2.42666     5.74092     44.9709     38.5428      1.3103   0.0508796  0.00551952    0.282388    0.747233    0.785014     1.17056    0.872303     1.35207    0.697954    0.266464     177.595     4.60632     2.22948     1.55324     1.57203     1.78012    0.652649    0.367388   0.0163557   0.0861828    0.802344     3.45245      43.281
    27.0024     2.90064     0.50482    0.161857   0.0216182   0.0543242     13.6284    0.332967    0.630794     1.38917     1.45928     2.51457     110.146     0.19827    0.330748    0.614165    0.459967    0.210748     1.00321    0.147999    0.190872    0.163953   0.0345815      1.1903     22.6127     27.5553      4.6191     1.23282     0.47848    0.125356   0.0254595   0.0357328    0.309115    0.488241     1.77182     1.77457     10.8384       28344     4.03731    0.281414  0.00480025    0.153493    0.166432    0.392196    0.709399    0.783342     1.16422     1.07399     1.02278     1.13116     1.51176     1.04381     1.25997     1.08864    0.691265    0.833693    0.289246    0.313347    0.073437   0.0398319    0.523615     4.52431     28387.6     10.4899     3.74618     1.33472    0.429595    0.212924   0.0240393   0.0578574    0.159751    0.750845     1.88308     4.68118     29.5203     22.4293     1.06184   0.0801633   0.0513649    0.304605    0.596295    0.781992    0.372993       0.549       0.704    0.394721    0.266261     111.775     3.00219     1.34206     1.35693     2.24938    0.652645     3.23038    0.378736    0.030039   0.0307131    0.175711     1.99829     25.6246
    15.1409      1.4562    0.422209   0.0513813    0.202195     2.19884   0.0543277    0.215186     0.31563    0.709057    0.929205    0.327005     55.3821   0.0314768    0.113585    0.469749    0.444877    0.137218    0.194982     0.14812   0.0854856    0.150397   0.0378013     0.70897     12.5177      13.339     1.39439    0.600566    0.277489    0.118207   0.0802744   0.0770682    0.169948    0.523776    0.606241     1.64373     5.84422     14470.3     1.49021    0.167753   0.0758558   0.0860378    0.293561    0.554103    0.371494    0.607755    0.668546     0.63489    0.815504    0.650254    0.742736    0.493451     0.41951    0.491678    0.620999    0.386967    0.239648     0.12308   0.0505809  0.00653552     0.13606     2.10245     14360.1     6.45403     1.59219    0.762013    0.407646    0.161728    0.246746   0.0458733    0.126178    0.456031    0.894654     1.82473     14.4739      11.429    0.406091  0.00325289    0.022514   0.0307873    0.127841    0.414786    0.245376    0.431366    0.398581    0.206398    0.271497     58.6928     2.23045    0.467671    0.523715    0.483928    0.367385    0.378747     26.9678    0.486744   0.0307746    0.231752     2.70368     14.0241
    2.61994    0.435416    0.053554    0.124274     7.39191    0.202206   0.0216133   0.0375446   0.0788601    0.046798    0.166425    0.216294     16.4079   0.0360329   0.0127805   0.0161556   0.0437264  0.00642188    0.880952    0.172697  0.00322637   0.0614773   0.0915196    0.225559     2.68347     1.11175    0.300233    0.070475    0.053039  0.00179349    0.010462   0.0125277    0.766386    0.150335     1.40649    0.965295     1.70661     3522.76    0.405724   0.0807552   0.0699541   0.0650699   0.0517293    0.290715      0.1138    0.209003    0.416577     0.14637    0.184193    0.137864    0.196071     0.13768    0.134382    0.326132    0.024256     0.13429    0.126882   0.0408749   0.0804882     0.02027    0.317895    0.543308     3570.17     1.20581    0.629523    0.682679    0.159538     1.08239   0.0568711   0.0457217   0.0239753   0.0746671    0.176762    0.467801     1.02377     2.85219    0.115266    0.124566    0.126198 0.000576353   0.0245536     1.92432   0.0770768   0.0552853   0.0126656    0.126777  0.00130058     15.7724     0.59128    0.124563    0.250445   0.0912538   0.0163409   0.0300411    0.486747     3.42136   0.0253937    0.157607    0.257257     2.36198
    1.51532   0.0415322    0.259698     4.28854    0.124264    0.051386    0.161881   0.0986815     1.65089    0.108702    0.151002   0.0609848     1.76576    0.107082   0.0362879    0.218307   0.0491735   0.0199262    0.447547   0.0762093   0.0125534   0.0429143  0.00257446   0.0103263    0.399568    0.484284    0.629417    0.243007    0.102469   0.0235468  0.00115282  0.00839576   0.0576065   0.0422491     1.42154    0.203454    0.173203     433.977    0.231217  0.00241853   0.0814772   0.0212095   0.0373251     0.10219  0.00951139   0.0521576   0.0113918 0.000792501 0.000858918  0.00727002   0.0187275  0.00988068   0.0234049 0.000725825   0.0502898   0.0697003   0.0926253   0.0411072   0.0304337  0.00514049   0.0410522    0.298877     457.617   0.0121859    0.410619    0.227556   0.0100564    0.116055   0.0185509   0.0609312   0.0584408    0.182136    0.505859     0.25547    0.754175    0.206412   0.0352873   0.0932153   0.0326914   0.0457507  0.00188712   0.0955065    0.108355   0.0314441   0.0594526    0.127712    0.128786     1.27732     0.18206   0.0769799    0.129982    0.962512   0.0861674   0.0307201   0.0307753   0.0254035     6.71239    0.118355   0.0274663     1.34626
    18.5161     1.41658    0.140009    0.197796    0.194885    0.125362    0.359194      0.8113     1.09217     1.24109     1.22936     2.46896      76.208    0.329654    0.597675    0.794497    0.722945      0.7467    0.772343    0.495951    0.405688    0.167162   0.0276927    0.417326     14.4347     21.8768     3.55609     1.61774    0.915188    0.408608    0.102931   0.0169164   0.0136232    0.122173      1.2952     1.87433     7.08716     20727.4     3.95355    0.380449   0.0472274  0.00251698    0.118179    0.277009    0.436193     0.50865    0.640983    0.734611    0.825482    0.924099    0.831922    0.703262    0.785151    0.608128    0.733199    0.475578    0.226507    0.147416   0.0213936    0.028682     0.38097     4.15588     20735.3     7.38885     2.36572    0.611723    0.146203   0.0406776  0.00998461    0.178128    0.387301    0.960864     1.88141      3.5232     23.2281     15.0028    0.167797    0.027704   0.0708455    0.387177    0.506437    0.634436    0.554363    0.660969    0.740537    0.692586    0.382472      78.657     2.34195     1.58832    0.901074     1.61943    0.802439    0.175679    0.231732    0.157599    0.118348    0.350769     1.25459     18.4639
    121.304     7.49932     1.38493   0.0154859    0.529036     1.16424     2.48401     3.73608     5.80502     5.66284      8.3274     15.1264     534.729     2.09122     3.47699     4.28692     4.28693     4.01323     3.79046     1.64819     1.94237    0.519912   0.0531314     3.33367     112.443     147.307     25.2183     10.3637     3.88273     1.53741    0.462135 0.000624808    0.180747     1.67351     4.56079     13.1036     51.7617      142665     24.6019     2.39994    0.316173    0.196001     1.02223     1.96136     2.91011     3.33747      4.6781     5.44245     5.58151     5.34773     5.97738     5.61535     5.13439     4.46347     3.43568     3.59768     1.97822     1.06365    0.319556    0.119705     3.03297     26.1711      142647     51.0494      13.048     3.81534     1.17309    0.194272  0.00983013    0.290043     2.41076     4.49787     9.44107     25.1085     148.591     108.369     3.56684  0.00293069    0.613849     1.48117     3.94718     4.03038     3.88316     4.26364     4.51626     3.78739     1.70102      545.47      14.589     9.34554     7.55216     4.89187     3.45227     1.99811     2.70369     0.25726   0.0274796     1.25456     9.92363     122.315
    1710.38     128.352      16.722     1.51498     2.62019     15.1414     27.0038     44.2751     53.9896     65.0461     97.3198     158.024     6638.35     20.5103     39.7005     48.2486     47.5047     43.5616     36.9583     27.0949      16.615     4.81175    0.365887     47.9896     1376.29     1763.74     273.554     109.219     50.7903     20.1635     4.04077   0.0284033     4.11066     19.5784     60.0715     153.967     639.487 1.73518e+06      301.31     27.4041    0.774115     2.51929     13.6578     23.6453     35.9675     47.4014      56.376     62.2497     68.0742     70.9322     72.9665     68.8286     63.0178     56.9745     45.9875     41.9017     23.4217     12.9031      3.2776    0.605547     27.7363     305.264 1.73684e+06     648.115     175.417     55.8817     20.8606     4.04356 0.000334404     4.85133     18.4481     51.1408     109.285     265.755     1766.68     1371.08     48.8305    0.962923     3.58584     15.9819     29.9122     36.9277     42.6147     47.7693     46.5717     37.8155     18.1104      6665.8     167.795     101.531     77.3422     64.7649     43.2841     25.6231     14.0244     2.36191     1.34587     18.4634     122.308     1681.07
